%OpenBCI Raw EXG Data
%Number of channels = 16
%Sample Rate = 125 Hz
%Board = Cyton+Daisy
Sample Index, EXG Channel 0, EXG Channel 1, EXG Channel 2, EXG Channel 3, EXG Channel 4, EXG Channel 5, EXG Channel 6, EXG Channel 7, EXG Channel 8, EXG Channel 9, EXG Channel 10, EXG Channel 11, EXG Channel 12, EXG Channel 13, EXG Channel 14, EXG Channel 15, Accel Channel 0, Accel Channel 1, Accel Channel 2, Not Used, Digital Channel 0 (D11), Digital Channel 1 (D12), Digital Channel 2 (D13), Digital Channel 3 (D17), Not Used, Digital Channel 4 (D18), Analog Channel 0, Analog Channel 1, Analog Channel 2, Timestamp, Marker Channel, Timestamp (Formatted)
0, 11.704519989119415, 28.56374891843183, 50.21458923391326, 75.23667811583788, 89.83498664503213, 111.5880255782154, 294.0754657582266, 359.5207933576489, 423.2177596269753, 541.3442545447936, 604.066850708828, 518.4494268935327, 406.2667136371565, 648.8206999882655, 482.3661038448149, 515.2431953227549, 0.0, 0.0, 0.0, 0.0, 0.0, 0.0, 0.0, 0.0, 0.0, 0.0, 0.0, 0.0, 0.0, 1790785258.8259048, 0.0, 2026-09-30 13:20:58.825
1, 13.498664818517796, 34.38496818881093, 60.13321156230022, 83.46817459114249, 111.78695099258573, 161.4925937535275, 353.65280501324924, 324.05721736495366, 337.1128746944081, 260.2845071776577, 180.56822324541562, 103.11565050823728, 58.10845067777075, -29.960645518236788, -228.34204324537916, -191.25831619997325, 0.0, 0.0, 0.0, 0.0, 0.0, 0.0, 0.0, 0.0, 0.0, 0.0, 0.0, 0.0, 0.0, 1790785258.826404, 0.0, 2026-09-30 13:20:58.826
2, 15.021591495530085, 41.16940836731466, 67.05778155395183, 96.76418849453108, 96.50092039428702, 124.8139371087715, 86.21027522506475, 46.85322863772189, -15.508684062861548, -32.370891764184705, -32.194560030047285, -38.99631152419346, 82.64613854914498, 50.986754222805985, 171.59918195966281, 248.2442047035347, 0.0, 0.0, 0.0, 0.0, 0.0, 0.0, 0.0, 0.0, 0.0, 0.0, 0.0, 0.0, 0.0, 1790785258.8266673, 0.0, 2026-09-30 13:20:58.826
3, 16.90368993605179, 45.91233433508195, 66.54038429359309, 78.32894654021169, 79.88540665552436, 48.14970453239911, 2.5997604801502945, 15.647315435561197, -30.882224195534278, 35.0168212411631, 53.85217371454695, 151.24501535877263, 227.62629505437457, 442.73955037512377, 398.4466049411689, 198.87597588176408, 0.0, 0.0, 0.0, 0.0, 0.0, 0.0, 0.0, 0.0, 0.0, 0.0, 0.0, 0.0, 0.0, 1790785258.826801, 0.0, 2026-09-30 13:20:58.826
4, 18.016829387129278, 45.60971048668064, 63.53035489256044, 64.35534673676914, 36.076506722401376, -23.175935897295545, 1.93014518968414, -38.302585401244855, 63.43836511136462, 134.7203232026969, 259.5766579439022, 300.817950787582, 207.94908526693106, 135.57556196788207, -35.78427020525959, -154.63612374556465, 0.0, 0.0, 0.0, 0.0, 0.0, 0.0, 0.0, 0.0, 0.0, 0.0, 0.0, 0.0, 0.0, 1790785258.8268955, 0.0, 2026-09-30 13:20:58.826
5, 19.30311750515699, 49.25421610880167, 56.05269755731214, 38.844105477369745, 9.457091831786471, -7.227759085031153, -1.8950976843836997, 89.8168539135467, 205.08155769797537, 206.72171205027462, 216.26370224910386, 83.63084974254109, -84.55262262064244, -186.81626094527172, -12.066887033469925, 181.74729269902514, 0.0, 0.0, 0.0, 0.0, 0.0, 0.0, 0.0, 0.0, 0.0, 0.0, 0.0, 0.0, 0.0, 1790785258.8270504, 0.0, 2026-09-30 13:20:58.827
6, 21.41179902246527, 48.01329199859258, 46.36114762452607, 10.04541350721722, -18.42583451722598, 19.2494036145062, 90.38649544776604, 151.57873010205412, 186.63096562672615, 122.39045003865883, 23.884849502338938, -73.68026272501731, 93.9114132914199, 213.77877984575582, 293.1173335282041, 402.74922553004444, 0.0, 0.0, 0.0, 0.0, 0.0, 0.0, 0.0, 0.0, 0.0, 0.0, 0.0, 0.0, 0.0, 1790785258.827183, 0.0, 2026-09-30 13:20:58.827
7, 21.57344143265116, 44.77583050378615, 31.02712987168116, -14.104662983890158, -12.06037986906314, 59.902720475702345, 152.55890088377436, 201.71369327111518, 87.19713083467923, -36.87852747288497, -55.31558574524283, 128.72476713768742, 247.57906209851308, 386.0683468703651, 138.18466834078708, 43.07171126577555, 0.0, 0.0, 0.0, 0.0, 0.0, 0.0, 0.0, 0.0, 0.0, 0.0, 0.0, 0.0, 0.0, 1790785258.827266, 0.0, 2026-09-30 13:20:58.827
8, 23.134868183817925, 40.841679805983425, 14.217548209277941, -16.638835916662558, 15.50523432791448, 124.42038837759704, 183.14327980014548, 82.66586737707415, 25.503465688539308, -34.26683252430283, 176.1513137781369, 216.45069461250557, 163.93853629912942, 54.253863786659025, 18.979122548137042, 158.50522879841242, 0.0, 0.0, 0.0, 0.0, 0.0, 0.0, 0.0, 0.0, 0.0, 0.0, 0.0, 0.0, 0.0, 1790785258.8273475, 0.0, 2026-09-30 13:20:58.827
9, 23.711246753307375, 34.81288748043792, -1.4155214645593972, -12.047921324774677, 61.39676062490435, 135.30007255687514, 106.25636729862717, -30.023202551679233, -25.10537155961694, 143.3569436388015, 186.18730184259636, 133.517124537922, 53.183827310345166, -18.171616033716532, 360.05225473406205, 221.0983700586537, 0.0, 0.0, 0.0, 0.0, 0.0, 0.0, 0.0, 0.0, 0.0, 0.0, 0.0, 0.0, 0.0, 1790785258.8274283, 0.0, 2026-09-30 13:20:58.827
10, 23.549937152297133, 29.541844531253673, -4.666029722915603, 9.072318711667648, 106.4267662594589, 145.00381744457815, 23.04865191068076, -56.62441766087028, 121.39587353178212, 299.8983744271315, 110.61493472779694, 4.496263645328355, 69.14180247754038, 277.95729797526633, 249.37813335511888, 13.840628830004334, 0.0, 0.0, 0.0, 0.0, 0.0, 0.0, 0.0, 0.0, 0.0, 0.0, 0.0, 0.0, 0.0, 1790785258.8275084, 0.0, 2026-09-30 13:20:58.827
11, 24.02117232301441, 21.99368588417444, -18.477559708907336, 35.13159903741346, 112.70266204734233, 70.5339816947517, -58.418866579071704, 58.88547415681114, 216.02248580633233, 117.67057962229534, -115.32493501473365, 100.68766814098123, 415.9366595115606, 204.7462473216475, 77.4755832676826, 125.23063546019117, 0.0, 0.0, 0.0, 0.0, 0.0, 0.0, 0.0, 0.0, 0.0, 0.0, 0.0, 0.0, 0.0, 1790785258.8276112, 0.0, 2026-09-30 13:20:58.827
12, 23.45414892483085, 15.300898868906874, -8.36896086285271, 60.32003754049521, 120.9156033340699, 18.7940109748279, 4.736415136657882, 150.6767585856776, 154.6472548457446, -33.13512213023486, 78.80856481055301, 246.97370666007293, 163.16038824494618, 76.92773385192854, 169.56178584248494, 221.06914591659947, 0.0, 0.0, 0.0, 0.0, 0.0, 0.0, 0.0, 0.0, 0.0, 0.0, 0.0, 0.0, 0.0, 1790785258.827699, 0.0, 2026-09-30 13:20:58.827
13, 24.35227080999703, 8.40301624103569, -3.4311404469871647, 76.80387577997695, 79.18735062665108, -45.07864792973058, 73.88554293073501, 169.64866362507644, 38.508600679986195, 32.62704443003305, 257.065845184091, 170.92598970282506, 62.92654891917752, 179.35272008819203, 275.61300354937765, -65.87856858431178, 0.0, 0.0, 0.0, 0.0, 0.0, 0.0, 0.0, 0.0, 0.0, 0.0, 0.0, 0.0, 0.0, 1790785258.8277822, 0.0, 2026-09-30 13:20:58.827
14, 22.807465527267563, 2.619993287064112, 8.451738273575724, 98.3632018033981, 38.25369900966666, 4.9737647102354146, 172.36959413149683, 109.17105887482079, -61.32782913216465, 166.60649351800015, 200.05467960872164, -88.09598634499042, 125.79612950192464, 357.79989335800303, 80.35706440460837, 153.05341216379102, 0.0, 0.0, 0.0, 0.0, 0.0, 0.0, 0.0, 0.0, 0.0, 0.0, 0.0, 0.0, 0.0, 1790785258.8278759, 0.0, 2026-09-30 13:20:58.827
15, 22.523158223658605, -2.7078479399227753, 24.27594435457444, 97.4234006707286, 7.923959721507174, 38.399572272591826, 197.00124606370315, -3.9374677958166586, 28.27487132789954, 250.36699508690234, -13.2289941772313, 57.460648107588476, 307.4132462922953, 3.103167062028774, 54.901400633146295, 756.1105536123443, 0.0, 0.0, 0.0, 0.0, 0.0, 0.0, 0.0, 0.0, 0.0, 0.0, 0.0, 0.0, 0.0, 1790785258.8279626, 0.0, 2026-09-30 13:20:58.827
16, 22.18915490132433, -4.749810194741574, 40.68821057853252, 70.40802170388926, -4.88126996178903, 100.60874571300263, 116.3388111852694, -64.60469527822099, 163.34135170676888, 134.4480150171264, 23.004072379016634, 336.4569618740246, 116.18787184993546, 25.162693144444233, 855.286991812965, 163.9444711866228, 0.0, 0.0, 0.0, 0.0, 0.0, 0.0, 0.0, 0.0, 0.0, 0.0, 0.0, 0.0, 0.0, 1790785258.8280923, 0.0, 2026-09-30 13:20:58.828
17, 21.127075984209462, -5.810341656294561, 55.16340145281425, 52.134396650744414, -3.072196683616177, 119.18597780340417, 17.38593098316128, 38.22502844249634, 263.5106156050087, 18.807945502568316, 161.1105558066701, 192.37185898552013, 13.761058593068668, 522.5800586660478, 259.6934807857623, -31.100384089020906, 0.0, 0.0, 0.0, 0.0, 0.0, 0.0, 0.0, 0.0, 0.0, 0.0, 0.0, 0.0, 0.0, 1790785258.8281765, 0.0, 2026-09-30 13:20:58.828
18, 19.575576939836125, -10.752619196985503, 64.23261697797653, 25.738647833338078, 16.054606212297216, 143.84319873228804, -31.003776652331467, 146.12128155938748, 106.21093483992249, -29.49458978437059, 281.2026631027955, -10.347356658919466, 352.89558551746916, 425.5785573228982, 33.113923342822176, 298.46847952449065, 0.0, 0.0, 0.0, 0.0, 0.0, 0.0, 0.0, 0.0, 0.0, 0.0, 0.0, 0.0, 0.0, 1790785258.8282726, 0.0, 2026-09-30 13:20:58.828
19, 18.14090565737264, -7.831677410486574, 76.61340620460709, -1.7873983440931198, 61.38226519867182, 99.16427322754923, -3.3610670708667243, 197.4257449229921, 20.40424311120448, 168.76819901099626, 131.0317602387108, 75.29037007230019, 749.2738168916806, -60.17801798087129, 185.83601815210622, 130.50548168422085, 0.0, 0.0, 0.0, 0.0, 0.0, 0.0, 0.0, 0.0, 0.0, 0.0, 0.0, 0.0, 0.0, 1790785258.8283591, 0.0, 2026-09-30 13:20:58.828
20, 16.803239643481707, -4.087145364185407, 69.71769557691877, -15.739945967818286, 91.79872666962736, 30.139787955344556, 63.63351249510248, 132.68991612087467, -23.84064092842813, 256.0595707716915, -46.11322106369599, 549.0506532511083, 105.23846179181692, 123.34299464494434, 308.69976906160605, 46.64735753265417, 0.0, 0.0, 0.0, 0.0, 0.0, 0.0, 0.0, 0.0, 0.0, 0.0, 0.0, 0.0, 0.0, 1790785258.8284419, 0.0, 2026-09-30 13:20:58.828
21, 15.343298324574477, 3.437150457614326, 63.38277839375384, -19.484703204692707, 136.9282949116004, -5.883325323153102, 165.8435778246843, 29.08613787109625, 107.59654756532208, 117.18560357977398, 87.19477185544815, 459.2740242214561, 54.30708284985552, 216.64951502680782, 70.1689363742988, 474.51529489538865, 0.0, 0.0, 0.0, 0.0, 0.0, 0.0, 0.0, 0.0, 0.0, 0.0, 0.0, 0.0, 0.0, 1790785258.8285232, 0.0, 2026-09-30 13:20:58.828
22, 13.676013309210095, 8.518666061470434, 55.104086150934904, 4.594270929745335, 113.35012374048281, 0.6123755287124766, 197.39571748520297, -70.36119261338033, 223.8433036857036, 22.688101975351543, 392.2709737315412, -27.974731810981723, 177.02566698816898, 100.86783491574619, 157.29801833319166, 201.26344013110398, 0.0, 0.0, 0.0, 0.0, 0.0, 0.0, 0.0, 0.0, 0.0, 0.0, 0.0, 0.0, 0.0, 1790785258.8286045, 0.0, 2026-09-30 13:20:58.828
23, 11.757377041744238, 13.98098771029904, 42.50315718289063, 21.167977172185275, 84.46280456977334, 17.103549912940608, 124.06807165276372, -2.8864391080886946, 204.92874691622706, -16.441066805656675, 441.1300450827384, 63.16773073784128, 333.9479144033656, -66.20581343537705, 215.37629148339988, -196.1320747960649, 0.0, 0.0, 0.0, 0.0, 0.0, 0.0, 0.0, 0.0, 0.0, 0.0, 0.0, 0.0, 0.0, 1790785258.8286896, 0.0, 2026-09-30 13:20:58.828
24, 9.999999999999984, 21.49640528817824, 25.484856103543322, 47.256885150470445, 33.0885430453267, 80.3575776991828, 39.24079988363252, 103.3471753364016, 39.53583117065546, 269.03458863829485, 0.6398704112697686, 239.10811714535248, 93.46242212882109, 309.7768916707464, 97.96344409978164, 204.2101433233458, 0.0, 0.0, 0.0, 0.0, 0.0, 0.0, 0.0, 0.0, 0.0, 0.0, 0.0, 0.0, 0.0, 1790785258.8287728, 0.0, 2026-09-30 13:20:58.828
25, 8.243463003330321, 29.19354390749346, 11.00623754090163, 70.99152785514403, 9.449780238840198, 134.99160074900152, -28.6212595528865, 195.3763452425145, -27.731487933517727, 518.5207325344257, -104.09511908659121, 325.50364780240545, -64.40405707047935, 334.92284985580926, -7.316534349435216, 218.88080847711575, 0.0, 0.0, 0.0, 0.0, 0.0, 0.0, 0.0, 0.0, 0.0, 0.0, 0.0, 0.0, 0.0, 1790785258.828856, 0.0, 2026-09-30 13:20:58.828
26, 6.580526308120987, 35.70464090792153, 1.206925722118072, 89.15383547434138, -22.64623214160781, 158.2660501763262, -4.296843962884665, 170.80249028480335, 63.98787551243396, 258.40916298131344, 133.3984693096568, 47.88609941028707, 172.71598782209816, 82.0334300707242, 460.67688699031186, -123.74200607997892, 0.0, 0.0, 0.0, 0.0, 0.0, 0.0, 0.0, 0.0, 0.0, 0.0, 0.0, 0.0, 0.0, 1790785258.82894, 0.0, 2026-09-30 13:20:58.828
27, 4.8284877615820285, 41.37622926968268, -4.637143314076056, 103.32116284919792, -18.559978635664294, 106.19009347201461, 45.21602336092661, 48.07636168227569, 280.6197782875684, -82.12295074514213, 190.6061652539728, -62.16537371441524, 293.3731157776999, 43.3963970478906, 132.65028530502764, 218.58298182599603, 0.0, 0.0, 0.0, 0.0, 0.0, 0.0, 0.0, 0.0, 0.0, 0.0, 0.0, 0.0, 0.0, 1790785258.8290641, 0.0, 2026-09-30 13:20:58.829
28, 3.4036024823892364, 45.81054193582797, -13.848213250005422, 91.14898048325063, 17.827042871366658, 52.0955016659358, 117.80420606396376, -64.78366478674931, 499.6266128866114, 4.784096458792931, 164.90485071297348, 179.96954556857838, -57.243681976652994, 361.3482791796143, -106.93516640962144, 372.89625202428437, 0.0, 0.0, 0.0, 0.0, 0.0, 0.0, 0.0, 0.0, 0.0, 0.0, 0.0, 0.0, 0.0, 1790785258.8291583, 0.0, 2026-09-30 13:20:58.829
29, 1.38551782330563, 47.574254318069876, -11.791721472727545, 62.87878025109234, 66.35917547205509, -24.302702590691297, 203.19902472925344, 1.9968108263383328, 131.6296438129432, 186.74287501435788, -66.05682212976575, 324.7138600053803, 36.86137037478852, 134.64875903534787, 312.0008354743176, 39.46329615636802, 0.0, 0.0, 0.0, 0.0, 0.0, 0.0, 0.0, 0.0, 0.0, 0.0, 0.0, 0.0, 0.0, 1790785258.8292418, 0.0, 2026-09-30 13:20:58.829
30, 0.1664598517821787, 49.08349039120624, 3.7855844942218546, 38.835261140380375, 103.21922876806272, -32.36450526324424, 116.65282426762036, 176.6804720531715, -17.175001674901424, 198.44965041694346, -6.050304686010733, 91.82311775478428, 217.6465694283141, -64.96600295259731, 299.6506351692452, 405.39014719403156, 0.0, 0.0, 0.0, 0.0, 0.0, 0.0, 0.0, 0.0, 0.0, 0.0, 0.0, 0.0, 0.0, 1790785258.8293262, 0.0, 2026-09-30 13:20:58.829
31, -1.2371643813330824, 48.646668065765056, 11.033607696318814, 12.681518858967621, 112.52052879859826, 7.823533075829289, 52.331898235130865, 397.6843170879348, 8.713954294680292, 115.030472803946, 211.74676661483448, 21.628116992641736, 189.5636550545087, 245.7633213164935, -147.22769780250508, 600.78494382127, 0.0, 0.0, 0.0, 0.0, 0.0, 0.0, 0.0, 0.0, 0.0, 0.0, 0.0, 0.0, 0.0, 1790785258.8294103, 0.0, 2026-09-30 13:20:58.829
32, -2.2141663656218427, 44.691090568321954, 28.81402706173518, -1.147750628407671, 123.12530057640815, 59.9053004715278, -45.353875168177424, 362.3232845466988, 92.61739527402463, 28.20344504676038, 180.08954725327476, 129.06494262098457, 21.587587339715938, 214.89044805867377, 348.86152560001597, -32.557041875200156, 0.0, 0.0, 0.0, 0.0, 0.0, 0.0, 0.0, 0.0, 0.0, 0.0, 0.0, 0.0, 0.0, 1790785258.8294933, 0.0, 2026-09-30 13:20:58.829
33, -2.339503468824285, 42.02170781178046, 44.639441112853184, -7.200219217485177, 86.15886303791233, 120.31906671141829, -6.054986057666412, 84.08457531299298, 203.24387297077084, -40.54455563701879, 48.299648864913486, 250.96929437722798, 62.25556235436555, -66.96255754462021, 776.0664491549617, 159.13577472960694, 0.0, 0.0, 0.0, 0.0, 0.0, 0.0, 0.0, 0.0, 0.0, 0.0, 0.0, 0.0, 0.0, 1790785258.8295763, 0.0, 2026-09-30 13:20:58.829
34, -4.072020882992083, 35.05796718286825, 56.5975376385482, -4.106508734367658, 37.42123920208408, 130.85310597432294, 87.05815394666618, 5.1107486717087625, 190.09386678150946, 143.2902686344736, 15.538455325041213, 134.28873595798075, 380.49038218033763, -16.10574180334811, 110.72979362357131, 231.69744608796958, 0.0, 0.0, 0.0, 0.0, 0.0, 0.0, 0.0, 0.0, 0.0, 0.0, 0.0, 0.0, 0.0, 1790785258.8296592, 0.0, 2026-09-30 13:20:58.829
35, -3.3012290150766965, 29.04236437377304, 72.89779296252708, 8.184380695664732, 7.9286366894633105, 123.2089983329819, 241.04876910533707, -46.4176110827689, 64.33782773741046, 200.77717859712806, 109.7486329662743, -23.40095729571172, 188.76878440578264, 614.7286498969025, 69.24111193905631, -30.905472979052007, 0.0, 0.0, 0.0, 0.0, 0.0, 0.0, 0.0, 0.0, 0.0, 0.0, 0.0, 0.0, 0.0, 1790785258.8297439, 0.0, 2026-09-30 13:20:58.829
36, -4.728145148681861, 22.20991228979602, 66.61592431841768, 35.27785144917847, -28.783210258185107, 68.20275537935099, 363.0531918113978, 60.77778519816114, -7.2431893567326995, 124.74638094225931, 208.27491745263296, 75.63704178186461, -7.778367853209659, 179.06437699714166, 379.5636399156426, 122.39388075563221, 0.0, 0.0, 0.0, 0.0, 0.0, 0.0, 0.0, 0.0, 0.0, 0.0, 0.0, 0.0, 0.0, 1790785258.829826, 0.0, 2026-09-30 13:20:58.829
37, -3.694943709257105, 14.90327737001063, 76.43717638244829, 60.02937140219585, 2.387839297460644, 18.311075106794213, 166.9884981416788, 176.12668956622167, -8.885503874001259, 14.771932139987499, 174.0758273473457, 257.8409722587769, 212.17687679262528, -103.0865526936712, 138.99116218342226, 530.1286249623166, 0.0, 0.0, 0.0, 0.0, 0.0, 0.0, 0.0, 0.0, 0.0, 0.0, 0.0, 0.0, 0.0, 1790785258.829917, 0.0, 2026-09-30 13:20:58.829
38, -3.5466653548859597, 7.234227022499651, 58.78412549811053, 84.11583408234779, 24.154965175169632, -32.30072660491277, 66.65993945933553, 198.50835997707804, 156.2507313710518, -23.67250776637728, -82.84194224713772, 198.74317896054146, 684.517482661063, 187.59165088823397, 58.8689238755764, -17.806949331022594, 0.0, 0.0, 0.0, 0.0, 0.0, 0.0, 0.0, 0.0, 0.0, 0.0, 0.0, 0.0, 0.0, 1790785258.830042, 0.0, 2026-09-30 13:20:58.830
39, -3.951572042827232, 0.951544238277318, 50.47161543843581, 85.32525417399259, 62.75458694825093, -5.423815587038206, 15.527712159113122, 101.15025261947156, 213.90488163854215, 178.65785399292037, -27.92408546148792, -3.616847335777777, 268.91796327481643, 367.6886514456716, 239.1734386331395, 131.65031529257266, 0.0, 0.0, 0.0, 0.0, 0.0, 0.0, 0.0, 0.0, 0.0, 0.0, 0.0, 0.0, 0.0, 1790785258.8302057, 0.0, 2026-09-30 13:20:58.830
40, -2.616810331944409, -2.5358089609530836, 37.14450700089838, 83.30987058748872, 90.70366249705069, 38.521831825496776, -55.127730305583, 4.603505539588809, 144.0689528046043, 306.81918360523457, 157.64754259055616, 81.82985546218151, -39.703369351630954, 38.58490326613288, 206.56926349175598, 552.8643755079993, 0.0, 0.0, 0.0, 0.0, 0.0, 0.0, 0.0, 0.0, 0.0, 0.0, 0.0, 0.0, 0.0, 1790785258.8303533, 0.0, 2026-09-30 13:20:58.830
41, -1.805220729131614, -6.283970891204831, 19.902984556873005, 77.13477295718039, 133.37445809791467, 96.12985048305367, 40.24882254693004, -3.990715797055998, -15.431445589519981, 132.62044803248517, 209.21633539101578, 520.6985197443998, 153.4449202871074, -69.10272524680406, 35.148002854963934, 17.918156083045716, 0.0, 0.0, 0.0, 0.0, 0.0, 0.0, 0.0, 0.0, 0.0, 0.0, 0.0, 0.0, 0.0, 1790785258.8305156, 0.0, 2026-09-30 13:20:58.830
42, -0.553479336420045, -8.499186120372134, 7.80554727316024, 51.51413152568195, 117.93352990695342, 126.40528632316067, 105.16997054991685, 20.287630382169155, -67.08195288184498, -71.61707002852452, 92.20337187034612, 173.56268717257097, 389.4156855548006, 234.6511309781997, 162.1508451197503, -107.36126097234529, 0.0, 0.0, 0.0, 0.0, 0.0, 0.0, 0.0, 0.0, 0.0, 0.0, 0.0, 0.0, 0.0, 1790785258.830665, 0.0, 2026-09-30 13:20:58.830
43, 0.043634721862016335, -5.933778024364013, -4.684356635902795, 22.495304825437472, 78.09584662260794, 145.19689901919116, 195.38005999342545, 159.04579871412716, 74.43805968804215, -41.885291173123875, -160.96272870151265, 44.38943277217332, 111.18428504347223, 295.6076499211906, 331.96453078324, 235.0293485190418, 0.0, 0.0, 0.0, 0.0, 0.0, 0.0, 0.0, 0.0, 0.0, 0.0, 0.0, 0.0, 0.0, 1790785258.8308473, 0.0, 2026-09-30 13:20:58.830
44, 1.8742228979854971, -8.478107701271291, -16.998986662537355, -6.4438459869296025, 36.98925329932299, 99.20866609663432, 169.64669755582113, 221.44872585546506, 240.61703455525847, 158.50294920545883, 181.70773588659154, 48.90310349130269, 53.90468596443466, -157.64004628568313, 103.89629497604327, 263.8050080680381, 0.0, 0.0, 0.0, 0.0, 0.0, 0.0, 0.0, 0.0, 0.0, 0.0, 0.0, 0.0, 0.0, 1790785258.8310697, 0.0, 2026-09-30 13:20:58.831
45, 3.524182641843825, -2.172936020548004, -14.806696856491783, -19.7917694460699, 4.599920668715413, 22.105809456203502, 79.58894405826477, 138.80331178148032, 224.31024056659658, 303.9208434634836, 483.30553753459685, 240.94755900021403, 182.2754430624186, 126.19264603390236, -2.0410956105245646, 57.812496214832464, 0.0, 0.0, 0.0, 0.0, 0.0, 0.0, 0.0, 0.0, 0.0, 0.0, 0.0, 0.0, 0.0, 1790785258.83125, 0.0, 2026-09-30 13:20:58.831
46, 4.783540486476797, 1.3936095740672592, -11.586794002209274, -22.845224815743684, -7.7396004116345125, -39.10404264063551, 15.508037372803685, 48.01442650373306, 66.75104811390892, 130.5587650912338, 150.4675636925316, 301.4113265347838, 320.6016534956517, 339.27036395964177, 371.15572748630325, 898.304766520934, 0.0, 0.0, 0.0, 0.0, 0.0, 0.0, 0.0, 0.0, 0.0, 0.0, 0.0, 0.0, 0.0, 1790785258.8313768, 0.0, 2026-09-30 13:20:58.831
47, 6.563548044043404, 6.610727382796693, 1.2131853596898488, -3.8838802897409153, -0.9174759681733065, 0.043668163799750914, -49.39628334515328, 7.661151086715549, -9.193840546841471, 34.92031267476493, -45.44530893696111, 68.19436057969658, -6.72655917349266, 111.9885856425161, 261.3490514588285, 182.76112898951482, 0.0, 0.0, 0.0, 0.0, 0.0, 0.0, 0.0, 0.0, 0.0, 0.0, 0.0, 0.0, 0.0, 1790785258.8315365, 0.0, 2026-09-30 13:20:58.831
48, 8.312108437481807, 14.041102821787959, 18.35340339977281, 18.39974622930237, 18.273658196853933, 15.779694709632956, 16.946833483209552, -3.0139626987078714, 21.082643436896888, -21.4733949386016, -30.777888975869416, -5.9873232182874006, 55.8813966414921, -3.7664491732886347, -110.93322839355199, -6.355089099393155, 0.0, 0.0, 0.0, 0.0, 0.0, 0.0, 0.0, 0.0, 0.0, 0.0, 0.0, 0.0, 0.0, 1790785258.8316634, 0.0, 2026-09-30 13:20:58.831
49, 10.000000000000073, 21.46224563651008, 33.86916787153336, 47.2548236612356, 67.3731184923083, 82.32908746219468, 94.6463907833646, 110.38054318871002, 142.58424774538207, 368.72968882246914, 195.53852772936148, 203.45247211198472, 223.15143054567832, 290.12786004577765, 567.5945635406563, 413.9205696509585, 0.0, 0.0, 0.0, 0.0, 0.0, 0.0, 0.0, 0.0, 0.0, 0.0, 0.0, 0.0, 0.0, 1790785258.831838, 0.0, 2026-09-30 13:20:58.831
50, 11.774297340795806, 29.18409470508245, 49.35200890060254, 77.27412029909496, 101.01884678183643, 131.047819478583, 155.33539344825238, 212.27789697428992, 240.56310775730302, 456.4431224678326, 316.02825575384156, 206.8434540608553, 229.3130958146653, 550.7158829910472, 231.72474536466223, 201.7768898038421, 0.0, 0.0, 0.0, 0.0, 0.0, 0.0, 0.0, 0.0, 0.0, 0.0, 0.0, 0.0, 0.0, 1790785258.8320398, 0.0, 2026-09-30 13:20:58.832
51, 13.454314371095982, 34.114958445047435, 57.9710823292514, 84.1932564194039, 107.18513702676981, 132.90802454187195, 152.5739388727729, 138.7687699771943, 147.3317883100924, 241.11957411100883, 94.1462135179611, 37.43772240356276, -67.41762459470016, -73.2051992131909, -132.8283947953301, -225.35861821627321, 0.0, 0.0, 0.0, 0.0, 0.0, 0.0, 0.0, 0.0, 0.0, 0.0, 0.0, 0.0, 0.0, 1790785258.8321838, 0.0, 2026-09-30 13:20:58.832
52, 15.379197658948296, 38.672443554618354, 64.39873170100958, 89.40067100095285, 121.91602284988775, 122.03383168528772, 93.53372623125773, 58.31962412275554, 21.557138197406715, 14.68549506240673, -29.338509204639422, -65.97630878630318, -80.05269013548218, 152.75707355303183, 170.14488561996734, 201.4291210677057, 0.0, 0.0, 0.0, 0.0, 0.0, 0.0, 0.0, 0.0, 0.0, 0.0, 0.0, 0.0, 0.0, 1790785258.8322766, 0.0, 2026-09-30 13:20:58.832
53, 16.71285821553985, 42.77840056650374, 68.65562020866435, 84.16489618847574, 81.14836299497625, 52.62501968266001, -12.480688890038067, -66.10598038439088, -117.90389758149658, -52.753997861711355, 81.21916675878846, 151.7478460746884, 233.59523639796222, 213.93518056054708, 291.00497622013626, 201.90158121879205, 0.0, 0.0, 0.0, 0.0, 0.0, 0.0, 0.0, 0.0, 0.0, 0.0, 0.0, 0.0, 0.0, 1790785258.8323815, 0.0, 2026-09-30 13:20:58.832
54, 18.14917568172718, 46.58056940955066, 70.40126508694078, 65.89382311075168, 33.35375913165963, -13.439954250552148, -46.99202392407609, 1.6471376819441161, 101.11499082113676, 136.19890005898426, 294.1882038312484, 338.19622054393335, 276.6536476404325, 137.5985276305075, 110.90773626665629, 78.63737117578344, 0.0, 0.0, 0.0, 0.0, 0.0, 0.0, 0.0, 0.0, 0.0, 0.0, 0.0, 0.0, 0.0, 1790785258.8324878, 0.0, 2026-09-30 13:20:58.832
55, 19.903180925352398, 47.04796637461077, 58.365806488465324, 38.515695863378475, -13.471711340489968, -8.493554271539153, -6.176710480056684, 95.23040926703712, 337.6415738435468, 274.4167562691331, 153.2840218881912, 75.29234209972387, -48.86324513541055, -104.85680948592363, -40.978940201349616, 241.21652093450854, 0.0, 0.0, 0.0, 0.0, 0.0, 0.0, 0.0, 0.0, 0.0, 0.0, 0.0, 0.0, 0.0, 1790785258.832593, 0.0, 2026-09-30 13:20:58.832
56, 21.29233642161682, 47.23785032707605, 46.14770781555342, 6.141822250023765, -27.731790164887258, -13.817865317210732, 85.41195660473754, 189.95005381892636, 196.4325225526866, 131.97595557417725, 25.255998782038816, -104.80105540447087, 76.19134760211591, 244.62031658847044, 298.47500906601084, 426.5038062091816, 0.0, 0.0, 0.0, 0.0, 0.0, 0.0, 0.0, 0.0, 0.0, 0.0, 0.0, 0.0, 0.0, 1790785258.8327053, 0.0, 2026-09-30 13:20:58.832
57, 21.502143632531254, 42.799486201877755, 31.064759896400346, -1.0914421240396948, -5.199919158187932, 59.89614420010021, 161.55938616552407, 195.35284171937377, 85.83543026091536, -28.906946540095447, -9.914157270955343, 127.79255737026075, 679.3451917523582, 347.86187780144536, 126.69002237930485, -169.84462469020036, 0.0, 0.0, 0.0, 0.0, 0.0, 0.0, 0.0, 0.0, 0.0, 0.0, 0.0, 0.0, 0.0, 1790785258.8328261, 0.0, 2026-09-30 13:20:58.832
58, 22.16201917337858, 42.88678022079628, 14.144698300764361, -23.21528731001792, 14.780481106201265, 106.78304527832128, 145.0009314094999, 82.39811640232023, 0.676055273311249, 9.403621557490368, 162.77399460293088, 302.744900947045, 397.12633109501803, 67.3372668024495, -33.59177885007006, 159.05396907714112, 0.0, 0.0, 0.0, 0.0, 0.0, 0.0, 0.0, 0.0, 0.0, 0.0, 0.0, 0.0, 0.0, 1790785258.8330395, 0.0, 2026-09-30 13:20:58.833
59, 23.226694711267257, 36.41028015225949, 3.3978410935901593, -19.84301557774406, 66.13995563312612, 120.82595775067472, 92.29611558972718, 10.995450808099847, 28.407046770608027, 192.063557919998, 281.34216709312915, 247.9221632311046, -101.76670802214889, 59.15082531318443, 289.374652117409, 602.4268445208792, 0.0, 0.0, 0.0, 0.0, 0.0, 0.0, 0.0, 0.0, 0.0, 0.0, 0.0, 0.0, 0.0, 1790785258.8331666, 0.0, 2026-09-30 13:20:58.833
60, 24.334744388960793, 29.699392497237707, -7.449765829776723, 5.041435086213404, 98.16232151195135, 142.94936730754935, 35.76616462998507, -55.49128576759736, 112.72695285157674, 179.81076167978645, 110.60381781631088, -114.52426754639686, 74.10390915839511, 443.66789836812796, 250.00616570305536, 41.4956369511508, 0.0, 0.0, 0.0, 0.0, 0.0, 0.0, 0.0, 0.0, 0.0, 0.0, 0.0, 0.0, 0.0, 1790785258.8332875, 0.0, 2026-09-30 13:20:58.833
61, 24.28435882673977, 22.045879554734725, -8.373664978728591, 34.16868791242057, 107.465174162811, 72.05272461048322, -9.394488308016008, 138.94436391274715, 260.4369421501327, 117.76252980941499, -43.51038862476332, 181.49206803110627, 221.448167090501, 171.19213086422675, -129.85017660807335, 154.73748034601473, 0.0, 0.0, 0.0, 0.0, 0.0, 0.0, 0.0, 0.0, 0.0, 0.0, 0.0, 0.0, 0.0, 1790785258.8334117, 0.0, 2026-09-30 13:20:58.833
62, 23.94262643686443, 14.74057969552205, -15.8252905863949, 66.31388642668773, 111.16268757713111, -4.4997359018589265, -2.1699127777000626, 302.092261886036, 183.4095051373095, 30.606200686877756, 73.21186039709141, 317.43731613844204, 148.71185126948794, 29.082920664479687, 160.60884054625905, 216.4114099883128, 0.0, 0.0, 0.0, 0.0, 0.0, 0.0, 0.0, 0.0, 0.0, 0.0, 0.0, 0.0, 0.0, 1790785258.8335392, 0.0, 2026-09-30 13:20:58.833
63, 24.277548190036537, 8.665897309455008, -7.971076120606725, 77.2013834804306, 77.37981537224857, -3.3090344278536747, 74.80789673696658, 400.1981896343108, 8.684444736560721, -33.30512177113195, 227.61000151685548, 170.24794661662787, -128.93101589723312, 160.9538394663088, 809.8410862647283, 28.81773224608156, 0.0, 0.0, 0.0, 0.0, 0.0, 0.0, 0.0, 0.0, 0.0, 0.0, 0.0, 0.0, 0.0, 1790785258.8336449, 0.0, 2026-09-30 13:20:58.833
64, 23.833086872843516, 0.7305614416832391, 9.663157580932054, 86.81407246530387, 34.25126586369952, -32.150845136327746, 157.49691546465806, 107.33930832141337, -49.44895895370152, 151.72779732393013, 251.06619760201787, 44.88338708224566, 125.35044317252304, 417.9978585649077, 90.28853433717794, 42.515705154036766, 0.0, 0.0, 0.0, 0.0, 0.0, 0.0, 0.0, 0.0, 0.0, 0.0, 0.0, 0.0, 0.0, 1790785258.8337467, 0.0, 2026-09-30 13:20:58.833
65, 22.717316989327156, -2.926711033139469, 24.469555033490792, 93.44292257417882, 2.4202991504784848, 44.10505242072251, 142.1303893248001, -12.698995754284368, 29.93259953033727, 241.6969670060312, 69.97716439689631, 67.4855525777543, 423.66495143738894, 62.15559026691815, 69.72570009406687, 279.3291330469928, 0.0, 0.0, 0.0, 0.0, 0.0, 0.0, 0.0, 0.0, 0.0, 0.0, 0.0, 0.0, 0.0, 1790785258.8338516, 0.0, 2026-09-30 13:20:58.833
66, 21.804521036473083, -5.666187492058384, 40.87718170951187, 80.76337103888633, -33.942639364555376, 100.85212002004664, 120.52546486455294, -63.217541914391404, 162.04508341150853, 130.14535301884732, -40.23079547107554, 338.39131370133055, 106.52542817941476, 91.09244653676618, 316.80473598642936, 43.28027964139075, 0.0, 0.0, 0.0, 0.0, 0.0, 0.0, 0.0, 0.0, 0.0, 0.0, 0.0, 0.0, 0.0, 1790785258.8339493, 0.0, 2026-09-30 13:20:58.833
67, 20.76747067282978, -6.804944500708569, 56.13275025374418, 50.28711106064064, -5.7054265338216155, 163.7722770492383, 20.969819626382886, 42.99730615068427, 201.63809235000122, -49.87966940559528, 313.75215783505865, 175.2868155243568, 54.313027684498394, 600.5324623127685, 142.01822695457875, -4.968213958378783, 0.0, 0.0, 0.0, 0.0, 0.0, 0.0, 0.0, 0.0, 0.0, 0.0, 0.0, 0.0, 0.0, 1790785258.8340845, 0.0, 2026-09-30 13:20:58.834
68, 19.49823563903009, -7.596478909456103, 63.95348341217034, 24.4418871274943, 24.791269629412568, 151.5675732006601, -34.09925388743078, 121.35020690032641, 108.88702841327373, 3.725194618961382, 207.25402089327952, -8.135327750721956, 178.1268757360474, 419.7512478418443, -98.3224771166287, 542.5740944409092, 0.0, 0.0, 0.0, 0.0, 0.0, 0.0, 0.0, 0.0, 0.0, 0.0, 0.0, 0.0, 0.0, 1790785258.834187, 0.0, 2026-09-30 13:20:58.834
69, 18.27204430372668, -8.321541412007246, 69.08726956896723, -3.0684972971062194, 65.60721437996374, 95.82658184214145, -20.450011072797622, 230.46443326452768, -29.54798531445499, 150.4259348227815, 129.41436522942263, -50.873390756362085, 314.01582350230854, -203.9476758386943, 265.68135692172166, 120.89132126295168, 0.0, 0.0, 0.0, 0.0, 0.0, 0.0, 0.0, 0.0, 0.0, 0.0, 0.0, 0.0, 0.0, 1790785258.8342857, 0.0, 2026-09-30 13:20:58.834
70, 16.648623215241976, -3.600758085040191, 75.89806668762452, -17.590917794803786, 115.035666945656, 20.610666463725217, 113.94269252562697, 123.77026715865864, -0.6058012287321048, 303.17650570911326, -64.80364531361903, 209.72518974536405, 79.25300525872838, 124.54869713295429, 239.86313914670018, -53.183651712975035, 0.0, 0.0, 0.0, 0.0, 0.0, 0.0, 0.0, 0.0, 0.0, 0.0, 0.0, 0.0, 0.0, 1790785258.8343883, 0.0, 2026-09-30 13:20:58.834
71, 15.448250446488128, 3.328668210434394, 65.7646627254723, -8.77718455798177, 134.94238984654967, -1.3072659330958984, 244.89958441341446, 18.308543948797663, 113.79651691878925, 131.75367106035975, 71.73644854032011, 263.6747891082814, -146.5099730663103, 352.8992873314407, -141.98560182220905, 213.36625922933086, 0.0, 0.0, 0.0, 0.0, 0.0, 0.0, 0.0, 0.0, 0.0, 0.0, 0.0, 0.0, 0.0, 1790785258.834493, 0.0, 2026-09-30 13:20:58.834
72, 13.600067771093098, 8.37712998740199, 52.4141280773857, -0.9414075487943663, 104.73330680576628, -3.526556176502922, 148.08674842007315, 12.28446453702901, 257.18525604010966, 23.794330545147474, 229.56581493464418, 54.12058531700055, 239.54260478408332, 110.96412250391477, 173.76826109463826, 179.00206831216127, 0.0, 0.0, 0.0, 0.0, 0.0, 0.0, 0.0, 0.0, 0.0, 0.0, 0.0, 0.0, 0.0, 1790785258.8347971, 0.0, 2026-09-30 13:20:58.834
73, 11.788542033099677, 14.338279207479939, 40.90367084092476, 22.847340240988835, 86.3375782479877, 13.16646610013732, 111.35716409879691, 20.011852175626416, 150.30225172764762, -14.669234242504729, 259.25375918251603, 8.307864307889616, 263.88527252181495, 1.218645422815058, 440.86162560246754, -132.48425262233764, 0.0, 0.0, 0.0, 0.0, 0.0, 0.0, 0.0, 0.0, 0.0, 0.0, 0.0, 0.0, 0.0, 1790785258.834912, 0.0, 2026-09-30 13:20:58.834
74, 9.999999999999906, 21.27849388341668, 26.214242003023486, 47.538732049551925, 33.44479609218104, 83.7774713962182, 45.993143393438416, 104.45021606274614, 44.77200367318752, 355.59423583883563, 56.65299759767731, 198.73293407390273, -6.250607764653182, 278.40521166750193, -16.618187857481757, 533.374604538249, 0.0, 0.0, 0.0, 0.0, 0.0, 0.0, 0.0, 0.0, 0.0, 0.0, 0.0, 0.0, 0.0, 1790785258.8350348, 0.0, 2026-09-30 13:20:58.835
75, 8.151697653754958, 28.47159349484744, 13.256983415844129, 79.4717326686369, 3.584464974659575, 125.57683906050241, -20.244655435093023, 151.4055345787218, -20.675043691372622, 455.43226193177634, -39.76747998469824, 300.60459085220197, -107.9965213641093, 319.3001914763902, 118.77774967645463, 428.5961991850074, 0.0, 0.0, 0.0, 0.0, 0.0, 0.0, 0.0, 0.0, 0.0, 0.0, 0.0, 0.0, 0.0, 1790785258.8351517, 0.0, 2026-09-30 13:20:58.835
76, 6.573259168129407, 36.25465247697382, 0.3319484367808627, 101.41537361929679, -23.291636055198552, 127.06827876285406, -21.916971612455782, 190.561659316152, 29.416499005466044, 232.86843009676988, 136.62308901338878, 22.091377196092083, 490.8631200597048, 8.263579720831814, 479.13265955452613, -278.59295418574555, 0.0, 0.0, 0.0, 0.0, 0.0, 0.0, 0.0, 0.0, 0.0, 0.0, 0.0, 0.0, 0.0, 1790785258.8352702, 0.0, 2026-09-30 13:20:58.835
77, 5.026697313194556, 39.20268090614947, -7.342390945316431, 88.61651025278229, -24.56296895805042, 111.33998724729324, 49.30857634621094, 56.82644284702329, 201.1864500407064, -63.242013402869134, 244.48724337725102, 46.67929688025258, 488.23314956181196, 59.92697828246007, 132.1186027492727, 274.9985833472117, 0.0, 0.0, 0.0, 0.0, 0.0, 0.0, 0.0, 0.0, 0.0, 0.0, 0.0, 0.0, 0.0, 1790785258.8353684, 0.0, 2026-09-30 13:20:58.835
78, 3.226981558838042, 42.78352093157524, -14.91261840812681, 83.02279549508982, 21.024651900089246, 47.6253050578256, 144.6642197693074, 8.8806585621561, 226.0467401524304, -2.2353337574367913, 152.5072572086844, 142.99171427655054, -81.402619410494, 301.32598758472204, 89.63618387754647, 251.88964966500558, 0.0, 0.0, 0.0, 0.0, 0.0, 0.0, 0.0, 0.0, 0.0, 0.0, 0.0, 0.0, 0.0, 1790785258.8354578, 0.0, 2026-09-30 13:20:58.835
79, 1.4328376591292038, 45.603969279613324, -3.7960597787285693, 70.65918844172465, 65.8747951253535, 2.293966533401125, 137.81115364163117, 21.02719685304571, 129.72645081704468, 146.4567019193027, -104.19615410012881, 556.3923817317188, 16.210205978449906, 137.42013412929018, 554.5280142423528, -0.1971455526964121, 0.0, 0.0, 0.0, 0.0, 0.0, 0.0, 0.0, 0.0, 0.0, 0.0, 0.0, 0.0, 0.0, 1790785258.835547, 0.0, 2026-09-30 13:20:58.835
80, 0.3620513293144203, 46.14667453663178, -2.311990151080458, 38.75539616630904, 105.72521051518083, -29.96859767383677, 115.41890860456085, 92.71565366648645, 21.844654614438383, 296.6056713318967, 8.624472582381273, 189.92339202042902, 286.9029834199973, -96.3913487576676, 525.3931941242531, 173.919185080749, 0.0, 0.0, 0.0, 0.0, 0.0, 0.0, 0.0, 0.0, 0.0, 0.0, 0.0, 0.0, 0.0, 1790785258.8356354, 0.0, 2026-09-30 13:20:58.835
81, -1.4118764393107917, 46.648216035842395, 14.037629457353262, 7.518738676065595, 120.55271072893026, -1.4685182821631102, 47.57359361432298, 196.13381098212474, -90.72559779533904, 117.30543753738799, 186.1079397795555, -97.15995096730393, 252.5680200140551, 193.07940040241925, -201.14158579189467, 447.3866523313189, 0.0, 0.0, 0.0, 0.0, 0.0, 0.0, 0.0, 0.0, 0.0, 0.0, 0.0, 0.0, 0.0, 1790785258.835731, 0.0, 2026-09-30 13:20:58.835
82, -2.1164953172874306, 47.049905988324824, 28.894850294574752, -10.77666383753973, 109.82450088213531, 59.91052996344506, -9.296784417284996, 171.12271369861176, 174.32253713778485, -81.22196668349858, 235.24589589466302, 125.36724078901622, -3.6221588408315597, 395.1658903099285, 173.32061834967533, -111.972152305176, 0.0, 0.0, 0.0, 0.0, 0.0, 0.0, 0.0, 0.0, 0.0, 0.0, 0.0, 0.0, 0.0, 1790785258.8358476, 0.0, 2026-09-30 13:20:58.835
83, -3.2337485848182066, 39.64774381956508, 44.12919559624657, -15.914439879153221, 76.29715248018528, 110.17489030773862, -34.61597872307087, 84.02111888064617, 192.9938403474217, -26.228978264503553, 41.765406697960316, 197.5607774057973, 98.78956957785492, -86.16838267172139, 417.6455353585497, 159.32564722724504, 0.0, 0.0, 0.0, 0.0, 0.0, 0.0, 0.0, 0.0, 0.0, 0.0, 0.0, 0.0, 0.0, 1790785258.8359463, 0.0, 2026-09-30 13:20:58.835
84, -3.146355200841704, 34.16329079156376, 60.36561057230682, -7.953356368335669, 33.62899310153031, 161.49902001369188, 26.98213585461305, -45.88555873688655, 153.0265382238201, 134.73609711653793, 24.88571614068225, 126.91031178860612, 240.4644724883312, -16.467151268743862, 47.913362592744676, 502.0206800008993, 0.0, 0.0, 0.0, 0.0, 0.0, 0.0, 0.0, 0.0, 0.0, 0.0, 0.0, 0.0, 0.0, 1790785258.8360622, 0.0, 2026-09-30 13:20:58.836
85, -4.1555703694268775, 29.291026816869387, 69.74291923381722, 7.192676301584484, 2.413674656385936, 119.052386246168, 132.0227021383888, -53.51025834741307, 55.82345007034428, 282.35202145273604, 109.61677931092383, -53.297240080549074, 176.80538535597952, 507.9795237600222, -40.07726916700469, 15.227959828062268, 0.0, 0.0, 0.0, 0.0, 0.0, 0.0, 0.0, 0.0, 0.0, 0.0, 0.0, 0.0, 0.0, 1790785258.8361561, 0.0, 2026-09-30 13:20:58.836
86, -4.225572536976534, 22.171240039455157, 78.3989529523804, 34.077097633078175, -32.27398061701125, 69.06985281426189, 139.9106168344776, 58.57486993723566, -4.277759777048928, 120.74599538241257, 199.97605362895547, 103.9152368416841, -13.792234327198855, 340.219264767033, 352.25012197278636, 120.04184113170854, 0.0, 0.0, 0.0, 0.0, 0.0, 0.0, 0.0, 0.0, 0.0, 0.0, 0.0, 0.0, 0.0, 1790785258.8363986, 0.0, 2026-09-30 13:20:58.836
87, -4.413355500580771, 15.206104181885959, 74.5618000677747, 60.66125356112564, -1.7911291023272113, 3.2309901203081424, 142.99820543682185, 166.02758060059017, -6.6797184749537735, -26.98960057106808, 340.06442957976, 237.83396058610265, 92.63627494498252, 13.660285520530564, 126.50582171093573, 480.8639067048028, 0.0, 0.0, 0.0, 0.0, 0.0, 0.0, 0.0, 0.0, 0.0, 0.0, 0.0, 0.0, 0.0, 1790785258.8365002, 0.0, 2026-09-30 13:20:58.836
88, -3.309818406425588, 7.167070410461081, 64.91382122020877, 80.18309504628627, 14.604063882273223, -22.97625267049726, 66.06916997384442, 162.33670288761084, 131.3522023386546, -40.71696012215958, -87.26525766464667, 205.09569401930696, 233.69761268833963, 189.15935156489002, -120.31266640612466, 75.27417377634241, 0.0, 0.0, 0.0, 0.0, 0.0, 0.0, 0.0, 0.0, 0.0, 0.0, 0.0, 0.0, 0.0, 1790785258.8365908, 0.0, 2026-09-30 13:20:58.836
89, -3.0478692325462635, 2.3702361529884257, 50.62808374940708, 98.98782368792652, 67.07728502324119, -12.028713733167208, 13.468677413751927, 111.04522543029269, 219.67933193870178, 178.13537957829735, -1.1459289415752778, -46.40774222355154, 134.59396067583214, 347.90387903384976, 258.11046916402535, 60.616807442805396, 0.0, 0.0, 0.0, 0.0, 0.0, 0.0, 0.0, 0.0, 0.0, 0.0, 0.0, 0.0, 0.0, 1790785258.8366802, 0.0, 2026-09-30 13:20:58.836
90, -2.1995916718994035, -1.3929501194850786, 36.01237090028998, 98.63863503734305, 113.0849576698981, 42.453062672472356, 2.0141847727979325, -17.5582735042897, 125.15569126496136, 171.66459914596675, 230.53820873472034, 56.6135358177298, -138.21314889231542, 48.47784250177625, 277.54853128310106, 758.3656885838457, 0.0, 0.0, 0.0, 0.0, 0.0, 0.0, 0.0, 0.0, 0.0, 0.0, 0.0, 0.0, 0.0, 1790785258.8367693, 0.0, 2026-09-30 13:20:58.836
91, -2.5030431939021334, -5.962818111763525, 21.22333998938676, 78.83388939188066, 102.7608622659823, 98.20479661338521, 38.10898576379801, -59.59068291552319, -31.572656386442773, 120.17826116622588, 279.14183378230234, 255.12174453690199, 149.6753140495203, 35.183857277775445, -57.56033606036246, 181.3472351112157, 0.0, 0.0, 0.0, 0.0, 0.0, 0.0, 0.0, 0.0, 0.0, 0.0, 0.0, 0.0, 0.0, 1790785258.836857, 0.0, 2026-09-30 13:20:58.836
92, -0.5169736813163492, -9.1744670404102, 2.604983329042998, 50.440825566071645, 122.5990362441379, 156.8965336383183, 102.37936067461135, 61.90936744362324, -29.194799684241644, 25.35900609714477, 85.74998377369778, 179.13831833419587, 407.4127944253017, 241.87760876920447, 171.2180826291229, 102.54417354808311, 0.0, 0.0, 0.0, 0.0, 0.0, 0.0, 0.0, 0.0, 0.0, 0.0, 0.0, 0.0, 0.0, 1790785258.8369448, 0.0, 2026-09-30 13:20:58.836
93, 0.7024743952310715, -9.396268331555437, -8.914581508385545, 24.36776530150553, 86.37248280784101, 113.92476254511564, 163.2747164157039, 288.0191370705814, 73.55836314051416, -3.7897365970807186, -5.349605582343571, -28.584708805578686, 105.08046552555928, 266.2448305694241, 360.2279591544887, 390.153144156463, 0.0, 0.0, 0.0, 0.0, 0.0, 0.0, 0.0, 0.0, 0.0, 0.0, 0.0, 0.0, 0.0, 1790785258.837034, 0.0, 2026-09-30 13:20:58.837
94, 1.5557346965321468, -6.132557574732935, -12.1665278552655, 6.4614179766972555, 32.807066725158805, 90.00451849853323, 154.01757545511379, 380.69909464920795, 160.21701314471093, 138.84259990598642, 81.7331432885165, -39.85223748327385, -6.989711321224036, 81.74540351380071, -41.37342027612215, 148.33659953928702, 0.0, 0.0, 0.0, 0.0, 0.0, 0.0, 0.0, 0.0, 0.0, 0.0, 0.0, 0.0, 0.0, 1790785258.8371189, 0.0, 2026-09-30 13:20:58.837
95, 3.355527466781793, -1.559209329030768, -9.825594131091513, -7.007157876720804, -4.591045111085883, 31.999649900637444, 78.4753032233182, 151.67856220635855, 191.35474680667522, 188.96031777463318, 338.8622432536215, 207.51745690898272, 377.44762938364323, 119.1885343870203, 34.671340102020054, 68.34596604777029, 0.0, 0.0, 0.0, 0.0, 0.0, 0.0, 0.0, 0.0, 0.0, 0.0, 0.0, 0.0, 0.0, 1790785258.8371627, 0.0, 2026-09-30 13:20:58.837
96, 4.791104859713533, 2.6739586797948434, -8.038927200259842, -12.187477147514848, -24.420217242494687, -7.101342482944801, -21.70389627873402, 8.026148465000645, 77.22079268869246, 114.98080414025303, 144.71722432844442, 193.33955569185713, 621.400759049524, 444.79829733031715, 838.8046135890903, 397.016250555994, 0.0, 0.0, 0.0, 0.0, 0.0, 0.0, 0.0, 0.0, 0.0, 0.0, 0.0, 0.0, 0.0, 1790785258.8372061, 0.0, 2026-09-30 13:20:58.837
97, 6.401834416361899, 8.816996226114165, 5.31534630889098, -7.244583537679233, -4.690865735857784, -35.2793814444686, -31.706042895382694, -45.3601170457808, -8.60859791480732, 2.5320483660530186, -58.53885264775138, 68.93878559286355, 14.13841274048211, 67.64168117791223, 302.93716207922154, 170.3969066245927, 0.0, 0.0, 0.0, 0.0, 0.0, 0.0, 0.0, 0.0, 0.0, 0.0, 0.0, 0.0, 0.0, 1790785258.8372872, 0.0, 2026-09-30 13:20:58.837
98, 8.18786801101242, 14.248451348253255, 18.98266811966478, 18.35648099288377, 21.512558971706696, 18.358840651062955, 7.315262388500152, -16.269631183169437, 23.50011888242652, 38.92049830371645, 11.11605024015229, -48.477294632149466, 73.90402784396991, 1.10394934946018, -170.28573726570357, -58.49453108724097, 0.0, 0.0, 0.0, 0.0, 0.0, 0.0, 0.0, 0.0, 0.0, 0.0, 0.0, 0.0, 0.0, 1790785258.8373623, 0.0, 2026-09-30 13:20:58.837
99, 10.000000000000158, 21.526872879973958, 34.58007387849021, 47.67136051218215, 61.07346534384696, 75.53465684965275, 93.02309130502314, 107.01064613568427, 134.2696613895606, 356.3068958087156, 217.43156761128384, 391.37854327169873, 265.4921743785803, 264.2879550918686, 317.523336172218, 196.7501414607122, 0.0, 0.0, 0.0, 0.0, 0.0, 0.0, 0.0, 0.0, 0.0, 0.0, 0.0, 0.0, 0.0, 1790785258.8374217, 0.0, 2026-09-30 13:20:58.837
100, 11.719075750274547, 29.010525367174615, 48.14431716005239, 80.4495212847258, 106.4694038749692, 115.0345433251751, 140.5677570388915, 213.1494396478099, 187.75615251904617, 486.38389225058654, 247.52427240086777, 603.7588472758691, 287.7292408649055, 281.4401339455653, 297.58883438026453, 180.5263633599579, 0.0, 0.0, 0.0, 0.0, 0.0, 0.0, 0.0, 0.0, 0.0, 0.0, 0.0, 0.0, 0.0, 1790785258.8374631, 0.0, 2026-09-30 13:20:58.837
101, 13.35052103425435, 35.4810334193096, 61.21965875839141, 96.5587240976186, 106.63132396721124, 125.67456020997533, 145.91065255649337, 133.74696650886787, 153.7086863766328, 268.13516243449413, 80.64334960319638, 108.77282904285013, 35.775967135011484, -9.646155356673034, -153.31796934574533, -28.953548323622442, 0.0, 0.0, 0.0, 0.0, 0.0, 0.0, 0.0, 0.0, 0.0, 0.0, 0.0, 0.0, 0.0, 1790785258.8375041, 0.0, 2026-09-30 13:20:58.837
102, 15.040905214463828, 39.43008275943267, 65.89242551982402, 107.48496553978003, 98.42268511090842, 108.36108059573044, 83.43067792453364, 61.61489218380305, 22.804222526493504, -29.702441337497504, -129.88294825556653, -48.37729095758925, -7.855610599516581, 107.71798036263925, 157.1682106152028, 291.2008938250841, 0.0, 0.0, 0.0, 0.0, 0.0, 0.0, 0.0, 0.0, 0.0, 0.0, 0.0, 0.0, 0.0, 1790785258.8375456, 0.0, 2026-09-30 13:20:58.837
103, 16.86997127909137, 45.37919959791537, 71.58070606164418, 83.65062369228355, 80.32234064258795, 49.062560060324984, 26.4998109978906, 15.94100043005048, -61.680835452373884, -30.163332559149183, 91.67061763560744, 185.90822133634197, 191.4999305675191, 680.797361711089, 280.25285873724425, 207.22830000578364, 0.0, 0.0, 0.0, 0.0, 0.0, 0.0, 0.0, 0.0, 0.0, 0.0, 0.0, 0.0, 0.0, 1790785258.8375869, 0.0, 2026-09-30 13:20:58.837
104, 18.095039709509066, 45.36701620445757, 70.84406720513974, 69.55188915625703, 33.51266507671363, -17.05846559885694, -69.2406272681219, 12.548390740790936, 67.83959147276227, 138.49212746071748, 231.98563366394865, 292.6210359045912, 310.39922541389103, 135.7557169302077, 9.258460927429951, 13.147106715385348, 0.0, 0.0, 0.0, 0.0, 0.0, 0.0, 0.0, 0.0, 0.0, 0.0, 0.0, 0.0, 0.0, 1790785258.837627, 0.0, 2026-09-30 13:20:58.837
105, 19.70547953648562, 50.15552174184678, 55.68097648174356, 38.46679851170363, -9.773519476151641, -7.481073965559773, 3.054706712632111, 90.70019848916523, 200.11840495177398, 178.4824108234547, 206.21629842309477, 107.90554210486704, -74.85635156687934, 8.013239529266968, 1.6660706000663765, 428.2375109557887, 0.0, 0.0, 0.0, 0.0, 0.0, 0.0, 0.0, 0.0, 0.0, 0.0, 0.0, 0.0, 0.0, 1790785258.8376682, 0.0, 2026-09-30 13:20:58.837
106, 20.63210251387597, 46.02507807610125, 45.0810240962256, 7.061619070437786, -16.142058208669482, 16.82164607525644, 177.74588066428896, 150.68777877726592, 249.6470053156269, 128.02409702359577, 38.29738912956975, 3.308685611051388, 71.78155698333946, 193.21484581294482, 308.3830501981262, 518.4720689577504, 0.0, 0.0, 0.0, 0.0, 0.0, 0.0, 0.0, 0.0, 0.0, 0.0, 0.0, 0.0, 0.0, 1790785258.8377123, 0.0, 2026-09-30 13:20:58.837
107, 21.357471632542858, 44.503767193406816, 31.027688414946006, -5.319184942899383, -6.696572681081676, 59.92007206281444, 148.47269177995307, 214.10422610332685, 186.87733458214257, 26.826268230086455, -68.3822109148754, 123.88537335925392, 292.21467936296864, 237.11397130886638, 137.88760549728153, -38.92100911693484, 0.0, 0.0, 0.0, 0.0, 0.0, 0.0, 0.0, 0.0, 0.0, 0.0, 0.0, 0.0, 0.0, 1790785258.8377633, 0.0, 2026-09-30 13:20:58.837
108, 22.74246278294113, 41.03383399552433, 17.29663211122405, -12.267352278937928, 25.591241398237447, 128.76593566081448, 165.24978569332768, 83.36742567650461, -8.802802332047605, 19.140778848066645, 149.73031152308388, 253.98987021850832, 204.60927233348042, 31.60036992060266, 7.742579447331536, 159.64374305780535, 0.0, 0.0, 0.0, 0.0, 0.0, 0.0, 0.0, 0.0, 0.0, 0.0, 0.0, 0.0, 0.0, 1790785258.8378243, 0.0, 2026-09-30 13:20:58.837
109, 23.10845841864125, 35.02693186898458, 4.708459460356067, -6.552977450615288, 67.02816164152568, 147.8567143680219, 91.32506917299622, -4.409653617711442, -16.567680988339617, 177.54805707483632, 628.9515312732316, 134.68963782562133, -70.0593032227149, -45.563336857751295, 318.4996113352777, 385.8240923835199, 0.0, 0.0, 0.0, 0.0, 0.0, 0.0, 0.0, 0.0, 0.0, 0.0, 0.0, 0.0, 0.0, 1790785258.8379111, 0.0, 2026-09-30 13:20:58.837
110, 24.123749636367535, 28.293976118857746, -2.9993932823722815, 7.336070066279312, 110.52751821339331, 136.72731178729174, 3.715865196316159, -14.079898201456885, 110.3134922465979, 171.0921962913521, 215.02144602511225, -134.19256910130667, 53.720142353309924, 299.6126912128052, 183.59093514664465, 35.90138072615308, 0.0, 0.0, 0.0, 0.0, 0.0, 0.0, 0.0, 0.0, 0.0, 0.0, 0.0, 0.0, 0.0, 1790785258.8380082, 0.0, 2026-09-30 13:20:58.838
111, 23.538468008355736, 22.00799159493398, -7.342055837153019, 35.360599911098646, 128.38123208601723, 72.87168425624094, -39.61795563555408, 64.48556462701944, 271.8210333545194, 123.49469771568755, -18.1973357995694, 97.9409769295022, 400.0142816306614, 215.33636280895706, -61.64981341537572, 118.2568162043769, 0.0, 0.0, 0.0, 0.0, 0.0, 0.0, 0.0, 0.0, 0.0, 0.0, 0.0, 0.0, 0.0, 1790785258.8380907, 0.0, 2026-09-30 13:20:58.838
112, 24.467039010317073, 14.901490404363225, -15.389521127935332, 60.12806664911954, 107.75959570928883, 11.126032028590949, -23.833185458032176, 161.51040237316775, 177.65040889721877, -3.6026526371681626, 60.74924045195516, 290.09062049652033, 146.31640975811212, 2.265545336159647, 312.45928156694487, 247.69943078388917, 0.0, 0.0, 0.0, 0.0, 0.0, 0.0, 0.0, 0.0, 0.0, 0.0, 0.0, 0.0, 0.0, 1790785258.83816, 0.0, 2026-09-30 13:20:58.838
113, 23.98173159037794, 9.371230682204146, -5.481970244500225, 89.47708946020981, 80.49127356532416, -5.7690020975775695, 76.25792561530044, 172.1449863842887, 2.0204713490515047, -23.724763260990898, 293.1617228213902, 196.00621907886494, -78.5449983915621, 175.47523084249718, 826.712270908758, 23.99116021484778, 0.0, 0.0, 0.0, 0.0, 0.0, 0.0, 0.0, 0.0, 0.0, 0.0, 0.0, 0.0, 0.0, 1790785258.838241, 0.0, 2026-09-30 13:20:58.838
114, 23.215923976062925, 2.86610955596484, 10.098452712358178, 97.4320762943716, 35.112891363589696, -8.080129132278145, 139.92289737186405, 109.51307173518441, -74.90794034170267, 182.75370440888952, 168.3902393414325, 29.901251276605095, 235.03219878714074, 230.38606914920382, 63.541541752099974, 89.97392281169171, 0.0, 0.0, 0.0, 0.0, 0.0, 0.0, 0.0, 0.0, 0.0, 0.0, 0.0, 0.0, 0.0, 1790785258.8382897, 0.0, 2026-09-30 13:20:58.838
115, 23.030899769936397, -4.427253751256394, 24.320030543084325, 96.22524844668803, -2.00057918963477, 39.699280197295494, 193.44611741711094, -7.859067906220631, 42.44074846248574, 209.52804442506073, 32.105572947729115, 43.95438678559846, 739.7452499364044, 93.6055305392826, -39.98615785605071, 471.19461688346615, 0.0, 0.0, 0.0, 0.0, 0.0, 0.0, 0.0, 0.0, 0.0, 0.0, 0.0, 0.0, 0.0, 1790785258.838332, 0.0, 2026-09-30 13:20:58.838
116, 22.5162878094359, -4.481101559627991, 40.795823363900396, 78.26832526014789, -26.862330122694544, 99.11283475157063, 118.16612147019613, 2.592346030852937, 171.58135858238745, 135.775108084767, -75.6087947381198, 201.31926854815705, 123.08006892163463, -61.47171322194487, 355.6191381281057, 131.51475838074873, 0.0, 0.0, 0.0, 0.0, 0.0, 0.0, 0.0, 0.0, 0.0, 0.0, 0.0, 0.0, 0.0, 1790785258.838373, 0.0, 2026-09-30 13:20:58.838
117, 21.16447357079367, -10.249608826286178, 50.92595677555534, 52.97354260213079, -10.233780620761614, 120.18574456296932, 31.156832220786598, 45.783970997777786, 214.77182810526267, -18.476705907662293, 142.50676049041599, 167.82851583858107, -17.394159787999058, 190.16131665072527, 134.12293819556785, 99.83817641043218, 0.0, 0.0, 0.0, 0.0, 0.0, 0.0, 0.0, 0.0, 0.0, 0.0, 0.0, 0.0, 0.0, 1790785258.8384156, 0.0, 2026-09-30 13:20:58.838
118, 19.419973361012566, -7.938425364061782, 65.20922081616786, 27.085597289762354, 13.888809446641261, 123.76668591142356, -47.3087002861524, 139.57799189058457, 100.63870248903376, 3.6091616697783167, 228.4175239061459, 48.38425472036002, 191.74225121810002, 422.1620579811991, 81.53088811776664, 458.4508140497598, 0.0, 0.0, 0.0, 0.0, 0.0, 0.0, 0.0, 0.0, 0.0, 0.0, 0.0, 0.0, 0.0, 1790785258.838458, 0.0, 2026-09-30 13:20:58.838
119, 18.27192729971699, -4.093865370461128, 74.27562695657906, 3.3014859835491777, 67.33764034759389, 88.64373016580518, -16.44639971050094, 172.4382321181152, 6.136376345452945, 142.99157726329793, 123.63821424012224, -1.489868500399723, 211.9960298370899, -36.85583353825743, 213.89049330988627, 260.766376097737, 0.0, 0.0, 0.0, 0.0, 0.0, 0.0, 0.0, 0.0, 0.0, 0.0, 0.0, 0.0, 0.0, 1790785258.8385038, 0.0, 2026-09-30 13:20:58.838
120, 16.481817582725473, -4.9410124041501895, 77.53213263712325, -17.77487587077323, 108.04484830678287, 34.11665611550184, 63.94608363726932, 154.02581940564087, -35.12112056209078, 220.9453245443364, 6.828520415613056, 475.0562723612468, 79.88304542806412, 222.14681829251361, 339.14734196895756, -9.303885741545173, 0.0, 0.0, 0.0, 0.0, 0.0, 0.0, 0.0, 0.0, 0.0, 0.0, 0.0, 0.0, 0.0, 1790785258.8385472, 0.0, 2026-09-30 13:20:58.838
121, 15.187929897852971, 0.4630785958899608, 70.38656948228444, -15.770707397825568, 103.38677210677508, -32.62134253889488, 138.3756125985306, 36.402561384832715, 116.7608730591801, 113.99458306913805, 27.480406006089666, 487.136245962521, -130.8131669147224, 448.6186183076706, -76.40377690333816, 782.3142255141838, 0.0, 0.0, 0.0, 0.0, 0.0, 0.0, 0.0, 0.0, 0.0, 0.0, 0.0, 0.0, 0.0, 1790785258.8385987, 0.0, 2026-09-30 13:20:58.838
122, 13.671062383303743, 6.975815531637444, 52.534892901751235, -6.069784452266219, 121.6013972861044, -39.67835302771428, 188.562403982466, -70.35925955367364, 204.38771766791018, -74.5465100740212, 221.71475444950713, -30.8527452547913, 219.1254151249654, 51.22947386552734, 160.2689658455928, 195.95369812278906, 0.0, 0.0, 0.0, 0.0, 0.0, 0.0, 0.0, 0.0, 0.0, 0.0, 0.0, 0.0, 0.0, 1790785258.8386447, 0.0, 2026-09-30 13:20:58.838
123, 11.74400879972081, 14.554600910096024, 42.778920769173105, 23.732221704689607, 86.32215593999973, 8.031421741838606, 136.98570679311626, 27.34735607712834, 150.81778576502722, 41.393533251805586, 236.15950100850836, -98.32501406592033, 245.78089641082838, 74.98426404258201, 488.7076720300881, 52.38715104202301, 0.0, 0.0, 0.0, 0.0, 0.0, 0.0, 0.0, 0.0, 0.0, 0.0, 0.0, 0.0, 0.0, 1790785258.8386908, 0.0, 2026-09-30 13:20:58.838
124, 9.999999999999837, 21.29083024359211, 26.113606283951235, 47.067658744269295, 32.68889104931705, 83.04863969238494, 45.43682296451967, 237.4847033653998, 34.63487928886614, 307.7748949042219, 41.811706264393024, 260.5918384271997, 42.73603175213893, 183.82456404891633, 0.24416022654469316, 198.31421755938175, 0.0, 0.0, 0.0, 0.0, 0.0, 0.0, 0.0, 0.0, 0.0, 0.0, 0.0, 0.0, 0.0, 1790785258.838735, 0.0, 2026-09-30 13:20:58.838
125, 8.232215010152672, 28.328968097529767, 12.347140707556061, 77.09965779921424, -10.215502083156473, 116.71269814776012, -1.000147604806486, 399.9641180448583, -65.20886049632813, 443.2788421469586, -69.32556766282411, 233.24715131681575, 45.68084445651672, 359.8167222286645, -35.91769793305903, 220.87907220518082, 0.0, 0.0, 0.0, 0.0, 0.0, 0.0, 0.0, 0.0, 0.0, 0.0, 0.0, 0.0, 0.0, 1790785258.8387802, 0.0, 2026-09-30 13:20:58.838
126, 6.530264687953965, 35.44947434102629, 0.6762818453300667, 99.95145362730702, -11.745377260620963, 158.07957933576301, -37.823356610374134, 147.23973520702305, 37.24752372269198, 273.8181248524566, 134.84379210034908, 59.375647562165014, 229.61647620399066, -59.80673197586489, 203.56138581911597, 96.62812806017482, 0.0, 0.0, 0.0, 0.0, 0.0, 0.0, 0.0, 0.0, 0.0, 0.0, 0.0, 0.0, 0.0, 1790785258.8388257, 0.0, 2026-09-30 13:20:58.838
127, 4.926597285971715, 40.97255978384837, -11.898344443655382, 93.36557618088816, -12.338982834955146, 121.38320393135551, 51.47141014906405, 47.32965817793473, 179.20873204726962, -50.83003587203882, 201.25678108446192, 29.999696294855497, 198.8696494988119, 82.28979105854009, 269.97358806046, 231.0250322799488, 0.0, 0.0, 0.0, 0.0, 0.0, 0.0, 0.0, 0.0, 0.0, 0.0, 0.0, 0.0, 0.0, 1790785258.8388705, 0.0, 2026-09-30 13:20:58.838
128, 3.051715590131436, 46.06476546720093, -8.728637405339285, 84.42060452279769, 18.701031721767773, 49.48054936260631, 136.8314503011336, -27.198184458733067, 260.41019062132847, -16.434134059598293, 141.7643627256735, 147.80691208495477, -60.43211279596767, 226.75670098876887, 50.01654689806506, 189.12066637595473, 0.0, 0.0, 0.0, 0.0, 0.0, 0.0, 0.0, 0.0, 0.0, 0.0, 0.0, 0.0, 0.0, 1790785258.8389149, 0.0, 2026-09-30 13:20:58.838
129, 1.5121551935616573, 45.42954642419125, -9.479751954925092, 64.1889213205616, 61.785623002676644, -21.099818969572993, 191.5360371458628, -13.03237351237415, 113.31227572599869, 152.33889547095575, -40.04483941809244, 319.6691457696411, -14.108496489421327, 137.46371210385428, 502.33851022791896, -91.34503809385416, 0.0, 0.0, 0.0, 0.0, 0.0, 0.0, 0.0, 0.0, 0.0, 0.0, 0.0, 0.0, 0.0, 1790785258.8389568, 0.0, 2026-09-30 13:20:58.838
130, 0.0582045864718701, 46.5503217670473, -1.88057120090847, 38.485393748847464, 100.0410817366752, -22.770846418485462, 113.81345913761552, 95.06581266337693, -32.17012381121289, 261.44340284983167, -21.745452176352046, 89.24182204557061, 186.40760034392358, 14.572302922768728, 195.77637145592803, 244.62223961955146, 0.0, 0.0, 0.0, 0.0, 0.0, 0.0, 0.0, 0.0, 0.0, 0.0, 0.0, 0.0, 0.0, 1790785258.8390293, 0.0, 2026-09-30 13:20:58.839
131, -1.2857336863647202, 47.546313392215396, 12.15843801889385, 11.736334787364171, 137.33465137495764, -2.876791853452225, 58.57847827073299, 150.87278048097278, -64.54737676842339, 126.13285478295995, 439.15446680997445, -124.56137410393646, 191.68931881332952, 267.0851404927567, 15.164215508492191, 311.37827745028835, 0.0, 0.0, 0.0, 0.0, 0.0, 0.0, 0.0, 0.0, 0.0, 0.0, 0.0, 0.0, 0.0, 1790785258.8390794, 0.0, 2026-09-30 13:20:58.839
132, -2.077947484535791, 46.96333169736091, 28.841213069620935, -2.999784961303206, 112.89381118346263, 59.868576091313464, -0.6100711056526364, 204.11576883604948, 92.75655807624929, 21.458576253927703, 562.6022110596481, 130.14130031465572, -136.15330202943517, 189.76667994587356, 160.45482279222597, -39.31385482313624, 0.0, 0.0, 0.0, 0.0, 0.0, 0.0, 0.0, 0.0, 0.0, 0.0, 0.0, 0.0, 0.0, 1790785258.8391252, 0.0, 2026-09-30 13:20:58.839
133, -2.29828449783294, 39.340158155733064, 45.04935966712797, -5.777624288929701, 75.62758930758451, 108.84547421515528, -15.49508044784136, 83.0894553511684, 248.85126244919812, -12.264172606793124, 122.69110959322775, 192.68356175979986, 66.63965912068511, 23.183844423981142, 439.1017610594413, 158.9955504737802, 0.0, 0.0, 0.0, 0.0, 0.0, 0.0, 0.0, 0.0, 0.0, 0.0, 0.0, 0.0, 0.0, 1790785258.839168, 0.0, 2026-09-30 13:20:58.839
134, -3.329775302569887, 34.03424252627789, 54.78799450337827, -14.738371849937955, 38.105375528059575, 145.71016268409338, 42.40666391146455, -30.490741506767648, 411.457157497853, 176.31639583574517, 40.974355687370846, 131.2694927983731, 604.5512707669757, -8.362521236819305, 113.53002827773577, 864.2874620449622, 0.0, 0.0, 0.0, 0.0, 0.0, 0.0, 0.0, 0.0, 0.0, 0.0, 0.0, 0.0, 0.0, 1790785258.8392098, 0.0, 2026-09-30 13:20:58.839
135, -3.811350093681739, 29.19338789360302, 65.8509326956952, 2.283705634790806, -1.0674816827952611, 109.6176048933263, 113.80235075920618, 10.744033947784231, 105.82907373831418, 216.69808800142408, 109.45484035745409, 27.52169838362161, 211.2595712289462, 531.279147070757, -18.78986715937546, 92.52153753571258, 0.0, 0.0, 0.0, 0.0, 0.0, 0.0, 0.0, 0.0, 0.0, 0.0, 0.0, 0.0, 0.0, 1790785258.8392513, 0.0, 2026-09-30 13:20:58.839
136, -4.438032555893997, 22.26192716599072, 71.3479527653011, 34.09572489466503, -33.60110266393029, 69.2827945002606, 140.6553538766816, 66.74572263188327, -93.23628210139489, 115.59913302323326, 222.27386625008916, 65.87931905823044, -79.32270769094632, 322.3788079883819, 483.90038715312966, 169.71345598630046, 0.0, 0.0, 0.0, 0.0, 0.0, 0.0, 0.0, 0.0, 0.0, 0.0, 0.0, 0.0, 0.0, 1790785258.839305, 0.0, 2026-09-30 13:20:58.839
137, -4.5076546177842065, 14.713705131736422, 67.16095715148495, 65.58650948470465, -23.441003867172327, 19.889159399268415, 157.9564889349993, 181.0115766320581, 31.54046199876067, 18.74687372877058, 147.95875177724855, 261.13404777438507, 92.6769546828719, -125.19035648348472, 127.93486475905009, 441.6228444593431, 0.0, 0.0, 0.0, 0.0, 0.0, 0.0, 0.0, 0.0, 0.0, 0.0, 0.0, 0.0, 0.0, 1790785258.8393476, 0.0, 2026-09-30 13:20:58.839
138, -3.882035208361142, 7.271292821532056, 68.09535990805385, 78.04503283023422, 22.964520218878665, -3.7694843130472933, 65.12639951887424, 196.42899440898424, 142.39288426444585, -42.780380681886214, -1.8083287543344113, 198.14704109579708, 306.15175700702696, 188.2570407058127, -54.83803940189165, 73.6500499486092, 0.0, 0.0, 0.0, 0.0, 0.0, 0.0, 0.0, 0.0, 0.0, 0.0, 0.0, 0.0, 0.0, 1790785258.83939, 0.0, 2026-09-30 13:20:58.839
139, -3.8460883987694388, 0.6543201047754543, 52.99258194815383, 91.01172342260341, 63.873302586136674, 2.30110177362544, -6.757540626752984, 120.84325620248507, 240.7250598956609, 138.4974857763349, 19.957034000171305, -91.06052285334732, 133.59942439498533, 426.27955884139584, 253.57705096654283, 79.91853428947557, 0.0, 0.0, 0.0, 0.0, 0.0, 0.0, 0.0, 0.0, 0.0, 0.0, 0.0, 0.0, 0.0, 1790785258.8394325, 0.0, 2026-09-30 13:20:58.839
140, -2.725206104797868, -3.818367881997645, 36.65355761535583, 97.85692270578997, 89.83280970225645, 41.365518286191545, -76.85343420887193, 19.034115912461303, 117.1711767056085, 173.37410897054156, 248.80891290041393, 124.74178379058768, -70.71627079023472, 53.10520228967978, 287.3447168277106, 367.93524704336517, 0.0, 0.0, 0.0, 0.0, 0.0, 0.0, 0.0, 0.0, 0.0, 0.0, 0.0, 0.0, 0.0, 1790785258.8394744, 0.0, 2026-09-30 13:20:58.839
141, -2.4650321936706074, -5.037376172817929, 20.690516651071025, 70.85007645439975, 135.29829473192248, 107.64055957637436, 54.141686590694576, 2.413998102670746, -21.585562623617747, 128.43346042792058, 305.12131150195603, 526.5093574347624, 140.20160120916321, -51.58576302734454, -200.29798117228484, 33.72500207589874, 0.0, 0.0, 0.0, 0.0, 0.0, 0.0, 0.0, 0.0, 0.0, 0.0, 0.0, 0.0, 0.0, 1790785258.839517, 0.0, 2026-09-30 13:20:58.839
142, -1.3924234266307867, -7.8465178540994, 7.728252337775196, 51.8408983486696, 110.27884422189811, 129.18740705921664, 121.23970625655178, 33.36974934873747, -60.14391973098242, 29.22179555227899, 62.42179397901253, 224.61928233591703, 273.7588659949603, 379.1242041876102, 173.3713796167653, -1.0485435133547867, 0.0, 0.0, 0.0, 0.0, 0.0, 0.0, 0.0, 0.0, 0.0, 0.0, 0.0, 0.0, 0.0, 1790785258.839559, 0.0, 2026-09-30 13:20:58.839
143, 0.4439586939477014, -5.506658971662155, -4.790132786179996, 22.487711758399804, 74.72022183851448, 134.19169897755378, 159.834396313774, 133.83079249372298, 81.26225522431143, -16.059760919679576, -127.20611462145916, -64.64695250115392, 115.185518731721, 293.4069394924885, 670.5965339192337, 279.8473756546216, 0.0, 0.0, 0.0, 0.0, 0.0, 0.0, 0.0, 0.0, 0.0, 0.0, 0.0, 0.0, 0.0, 1790785258.8396025, 0.0, 2026-09-30 13:20:58.839
144, 1.779142823534663, -8.874320267522528, -16.218437452928768, -2.2333457144038036, 35.45657213334856, 93.4863427797153, 160.94279327268669, 189.7508442199914, 180.944676800016, 133.33714460602837, 82.8785472010387, 45.742845215921704, 34.04750412581443, -39.47484561731716, -71.50620757382791, 130.2793031608792, 0.0, 0.0, 0.0, 0.0, 0.0, 0.0, 0.0, 0.0, 0.0, 0.0, 0.0, 0.0, 0.0, 1790785258.8396466, 0.0, 2026-09-30 13:20:58.839
145, 3.1771668140817297, -1.9482445536510369, -14.733333307172721, -5.991819828185982, -10.559208803631776, 30.108934891769668, 78.79289838140609, 131.44371501606003, 160.1870953081945, 281.26391943047645, 251.73001805266327, 298.31441143192194, 152.27346837226793, 105.53297980903636, 59.15336811070864, 22.123536946787965, 0.0, 0.0, 0.0, 0.0, 0.0, 0.0, 0.0, 0.0, 0.0, 0.0, 0.0, 0.0, 0.0, 1790785258.8396912, 0.0, 2026-09-30 13:20:58.839
146, 4.717297409016134, 2.861573866749815, -8.775558409313867, -14.15818621246423, -14.334422297271416, -36.47112587113105, -25.606610546690433, 45.09680251268335, 73.74307819047145, 135.56587250933342, 222.39122021495908, 233.26668329435904, 210.22894026439465, 417.41532719812454, 234.66784365504526, 401.5416284998564, 0.0, 0.0, 0.0, 0.0, 0.0, 0.0, 0.0, 0.0, 0.0, 0.0, 0.0, 0.0, 0.0, 1790785258.839737, 0.0, 2026-09-30 13:20:58.839
147, 6.508178942433661, 7.238405478084761, 4.186893856715809, 3.3206752000639526, -21.982398458121082, -2.603031282632628, -5.818699356015657, -51.81253961072642, -18.17381821369078, -73.22149844659, 42.82596544215727, 16.52080558536079, 60.64741706989608, 114.04588914431058, 136.10283476716336, 186.30533557662827, 0.0, 0.0, 0.0, 0.0, 0.0, 0.0, 0.0, 0.0, 0.0, 0.0, 0.0, 0.0, 0.0, 1790785258.8397806, 0.0, 2026-09-30 13:20:58.839
148, 8.170346808025064, 14.486114946912917, 19.60548647260596, 17.84170681709468, 18.09465808331105, 17.70459574797193, 28.151421832638412, 27.15526842566799, -23.873294957847946, -22.517811975004648, -33.92965229841491, -60.071360566387995, -120.63706373982663, -22.613922533654545, -162.51660184400328, 12.439364300525398, 0.0, 0.0, 0.0, 0.0, 0.0, 0.0, 0.0, 0.0, 0.0, 0.0, 0.0, 0.0, 0.0, 1790785258.839826, 0.0, 2026-09-30 13:20:58.839
149, 10.000000000000224, 21.32998106982027, 34.181834680745446, 47.031232549969936, 66.31761306128239, 80.1692408956929, 90.16425866338257, 112.48087259846882, 151.8368380713679, 305.4824878781107, 157.78974261208583, 235.98328354167464, 273.702273495399, 333.7668000124063, 356.9369328813211, 636.9948299542336, 0.0, 0.0, 0.0, 0.0, 0.0, 0.0, 0.0, 0.0, 0.0, 0.0, 0.0, 0.0, 0.0, 1790785258.839875, 0.0, 2026-09-30 13:20:58.839
150, 11.828045418849479, 29.062583359839543, 52.268359587998305, 78.76320301561974, 107.6432690390519, 116.10570683970018, 177.6700484258762, 170.00284702830055, 229.49287093965614, 466.97820193644645, 300.3027337001631, 273.0465950687691, 205.47654178557542, 320.96756613818854, 255.07626134914125, 508.5569453873246, 0.0, 0.0, 0.0, 0.0, 0.0, 0.0, 0.0, 0.0, 0.0, 0.0, 0.0, 0.0, 0.0, 1790785258.839922, 0.0, 2026-09-30 13:20:58.839
151, 13.454165161260944, 34.560826743009464, 60.56501742764105, 90.90858174998544, 137.71683940370278, 156.06497439298187, 175.79888424418087, 131.41547813330976, 158.57325476025193, 242.5394230462845, 93.10211763158927, 48.07628375156749, -31.922650735979573, -44.29421971362265, -92.73664073354863, -93.07504911082913, 0.0, 0.0, 0.0, 0.0, 0.0, 0.0, 0.0, 0.0, 0.0, 0.0, 0.0, 0.0, 0.0, 1790785258.8399959, 0.0, 2026-09-30 13:20:58.839
152, 15.047557271052927, 41.618644069457034, 64.4964579794925, 86.01143839511985, 120.57147745588335, 95.39811336872694, 89.06882093166989, 50.329191685625794, 12.17764421789947, -45.96174591544437, -40.321044286623504, -126.45305586568654, -82.70154631988319, 195.0022554149832, 161.6242953493965, 280.0478817930433, 0.0, 0.0, 0.0, 0.0, 0.0, 0.0, 0.0, 0.0, 0.0, 0.0, 0.0, 0.0, 0.0, 1790785258.8400612, 0.0, 2026-09-30 13:20:58.840
153, 16.700832910831203, 43.624464846370635, 69.53604638918276, 96.11770423614396, 74.71647936448412, 49.32255530106407, 13.515231924499346, -4.405762840171732, -66.20608939458197, 25.240455008170557, 140.08174343879915, 149.51197895024268, 615.0982138733723, 563.5929360759017, 346.9500664410523, 269.26005563262044, 0.0, 0.0, 0.0, 0.0, 0.0, 0.0, 0.0, 0.0, 0.0, 0.0, 0.0, 0.0, 0.0, 1790785258.8401058, 0.0, 2026-09-30 13:20:58.840
154, 18.252435746894076, 45.98364772838988, 74.56956065775802, 68.81814046036311, 33.92193575775717, 3.2206231060749246, -43.987074232320765, -44.01917160461696, 54.267532073444656, 169.23831236308047, 460.18189064137454, 190.74230399268612, 192.98016618501018, 297.84762070651084, -5.9066870134601, 15.187928142687497, 0.0, 0.0, 0.0, 0.0, 0.0, 0.0, 0.0, 0.0, 0.0, 0.0, 0.0, 0.0, 0.0, 1790785258.8401465, 0.0, 2026-09-30 13:20:58.840
155, 19.204223833969998, 46.074228922531624, 62.03978706460255, 38.632505059140236, -14.532803776698614, 0.6017140491049844, 22.593782535519395, 191.31819304039635, 214.22364004402905, 202.517418593078, 481.98162171626194, 79.74970707479629, 70.53863237384249, -84.97132440621957, -43.71561240995749, 206.51809974601414, 0.0, 0.0, 0.0, 0.0, 0.0, 0.0, 0.0, 0.0, 0.0, 0.0, 0.0, 0.0, 0.0, 1790785258.8401883, 0.0, 2026-09-30 13:20:58.840
156, 20.799969343310018, 46.45696647454049, 44.7213859246188, 7.230703091707717, -27.939675839950283, 14.611209447521041, 92.23460672971488, 389.82546103482184, 199.78961722894485, 129.63683715792, -26.658356050135495, -65.09110895075938, 21.371501750066955, 229.87886731433352, 396.13282465606574, 340.224344754639, 0.0, 0.0, 0.0, 0.0, 0.0, 0.0, 0.0, 0.0, 0.0, 0.0, 0.0, 0.0, 0.0, 1790785258.8402312, 0.0, 2026-09-30 13:20:58.840
157, 21.36998437161783, 47.229232133897526, 31.057000592083764, -1.5061306050925438, -10.635716210319153, 59.900468898967844, 164.14450010962514, 143.28499950181862, 85.85178276929705, -60.07105584256465, -11.66009886927337, 128.39355340707118, 297.7941053528159, 414.722559283122, 132.88009139425145, -207.02355112886823, 0.0, 0.0, 0.0, 0.0, 0.0, 0.0, 0.0, 0.0, 0.0, 0.0, 0.0, 0.0, 0.0, 1790785258.8402731, 0.0, 2026-09-30 13:20:58.840
158, 23.289411878437697, 41.87299819616403, 16.295377838476334, -12.73325239058854, 16.907257167045096, 115.17724124349954, 134.18643067897398, 83.74457894154527, 6.513978124389482, 2.154714323736414, 191.64128695141628, 357.1413400959076, 249.19752733408257, 60.41648498180261, -193.34839131176403, 159.77232436380913, 0.0, 0.0, 0.0, 0.0, 0.0, 0.0, 0.0, 0.0, 0.0, 0.0, 0.0, 0.0, 0.0, 1790785258.8403153, 0.0, 2026-09-30 13:20:58.840
159, 23.341141722285343, 36.93054211350946, 2.293635601367722, -17.386915010783248, 65.61815168259302, 119.35879051557242, 94.56914701431664, -12.36633372092463, -18.382886283307784, 142.70995174055668, 292.6476256217569, 241.55165147578478, 12.828693232513999, 66.62598476487177, 698.3652108212298, 337.3382993287246, 0.0, 0.0, 0.0, 0.0, 0.0, 0.0, 0.0, 0.0, 0.0, 0.0, 0.0, 0.0, 0.0, 1790785258.8403554, 0.0, 2026-09-30 13:20:58.840
160, 23.434596489361954, 28.989117323109802, -13.230435663213626, 7.507681924002483, 106.24735741433338, 108.79126063531567, 1.0651893200734008, -57.142269743470735, 133.45916191910862, 272.7506637825104, 110.55236199174334, -14.271022151111367, 79.01880204000778, 358.4847084163779, 427.0153091748004, -110.67239180421097, 0.0, 0.0, 0.0, 0.0, 0.0, 0.0, 0.0, 0.0, 0.0, 0.0, 0.0, 0.0, 0.0, 1790785258.840397, 0.0, 2026-09-30 13:20:58.840
161, 23.44200919647637, 22.33038079210636, -15.07308340328892, 34.9526922874396, 104.98678435946236, 70.64183655480538, -4.968211059822565, 60.46364508091246, 473.2691996134171, 125.04196523481659, -33.1872920226638, 194.0996326183356, 213.0165266751106, 209.04830656024723, -123.15048390398357, 134.37695730899276, 0.0, 0.0, 0.0, 0.0, 0.0, 0.0, 0.0, 0.0, 0.0, 0.0, 0.0, 0.0, 0.0, 1790785258.8404381, 0.0, 2026-09-30 13:20:58.840
162, 24.145339098080516, 15.051619380974536, -15.988626508960081, 62.35715099898751, 114.6566971530168, 9.038359078741067, -5.563478530146796, 177.49058942001474, 328.52125073192127, -50.31190817462982, 75.3880702705552, 363.18086775919807, 142.00722874543703, -102.35317188756528, 172.3629764318651, 447.74812041900293, 0.0, 0.0, 0.0, 0.0, 0.0, 0.0, 0.0, 0.0, 0.0, 0.0, 0.0, 0.0, 0.0, 1790785258.8404799, 0.0, 2026-09-30 13:20:58.840
163, 24.5826693269035, 9.094484037609483, -0.04726938555017668, 85.0876740104735, 83.09782454837466, -44.522035867903185, 74.33938139710423, 188.74909287442716, 51.213643247412676, -52.91041191638067, 275.0732101599575, 146.6882755099445, -166.22856449880464, 188.76712652175377, 261.98148211201374, 51.80474387484712, 0.0, 0.0, 0.0, 0.0, 0.0, 0.0, 0.0, 0.0, 0.0, 0.0, 0.0, 0.0, 0.0, 1790785258.840521, 0.0, 2026-09-30 13:20:58.840
164, 23.940969271916167, 2.61432050293487, 9.931193413499063, 95.53561353302877, 32.98792564302316, 7.00896549303895, 168.44724265363266, 109.69851426845955, -2.489812377089109, 162.36850642969037, 206.5319543843022, -7.339477972234832, 125.61123444079085, 417.9945198372476, -28.40257836940333, 48.17894909234292, 0.0, 0.0, 0.0, 0.0, 0.0, 0.0, 0.0, 0.0, 0.0, 0.0, 0.0, 0.0, 0.0, 1790785258.8405626, 0.0, 2026-09-30 13:20:58.840
165, 22.94568244016072, -3.3482813890925165, 23.04626237192165, 91.7007271931588, 4.171661203379941, 44.346285287851046, 152.43205703241262, 31.009023211896285, 62.63426921880229, 212.1136080548864, 6.536172942090815, 39.862062344049136, 400.65773671709485, 106.14804181649207, 74.36934518088431, 621.3800674203211, 0.0, 0.0, 0.0, 0.0, 0.0, 0.0, 0.0, 0.0, 0.0, 0.0, 0.0, 0.0, 0.0, 1790785258.8406043, 0.0, 2026-09-30 13:20:58.840
166, 21.85243286341472, -6.749730952831875, 38.74167840227521, 71.67236129576658, -30.2790538417526, 90.22686812880109, 98.96524295051066, -5.079356488894746, 194.3597384131894, 120.66872788059146, 26.215799935936957, 236.2367707909471, 106.55365711617813, 11.215096259041246, 285.5218877217587, 183.27317251425617, 0.0, 0.0, 0.0, 0.0, 0.0, 0.0, 0.0, 0.0, 0.0, 0.0, 0.0, 0.0, 0.0, 1790785258.8406448, 0.0, 2026-09-30 13:20:58.840
167, 21.233490612532925, -6.282593039767484, 54.64150535868083, 54.89434512006814, -23.723621054043477, 135.5837402668932, 20.174633122254413, 32.50235039807495, 255.39640649309322, 16.614957166678096, 144.36556210741037, 168.63801263983515, -32.74723934753197, 225.70067569316745, 136.32689761151204, 60.9522101033846, 0.0, 0.0, 0.0, 0.0, 0.0, 0.0, 0.0, 0.0, 0.0, 0.0, 0.0, 0.0, 0.0, 1790785258.8406858, 0.0, 2026-09-30 13:20:58.840
168, 19.381556557238316, -9.290591781946656, 69.90650298239407, 25.99906662368417, 27.86023950101279, 133.85545669656977, -58.144253706931266, 133.27548552765626, 99.03690080362738, -36.05553169685288, 281.5209155351109, 57.74753400235385, 144.67200773738264, 258.12897812767005, 56.387159489716055, 490.8747369447486, 0.0, 0.0, 0.0, 0.0, 0.0, 0.0, 0.0, 0.0, 0.0, 0.0, 0.0, 0.0, 0.0, 1790785258.8407285, 0.0, 2026-09-30 13:20:58.840
169, 18.720697363016185, -6.825157928828553, 67.94663660423915, -1.2423209790600183, 62.291216992832794, 95.6455148682973, -25.753537878400365, 216.28657995503434, 2.033978550593659, 137.6724876716807, 125.95451311465263, 34.83807207334269, 319.1808051586621, -8.023521848094902, 347.5047234348426, 141.39905886737174, 0.0, 0.0, 0.0, 0.0, 0.0, 0.0, 0.0, 0.0, 0.0, 0.0, 0.0, 0.0, 0.0, 1790785258.840771, 0.0, 2026-09-30 13:20:58.840
170, 16.953679555414848, -4.191383191195779, 73.47253803614487, -7.067637674172346, 101.80391301524254, 25.062356009267432, 61.577787259169554, 156.24014992148753, -18.90570646135164, 184.58452321788016, -109.87926615524421, 186.44449572130372, 151.39337328388484, 227.81791842289158, 182.27593766284042, -38.11530284422585, 0.0, 0.0, 0.0, 0.0, 0.0, 0.0, 0.0, 0.0, 0.0, 0.0, 0.0, 0.0, 0.0, 1790785258.840817, 0.0, 2026-09-30 13:20:58.840
171, 15.188625249480964, 0.4893447769050283, 64.06669708673236, -7.503149707081661, 109.0193246777165, -31.176699927243945, 131.89906414159373, 23.988510333492727, 107.56768503952861, 135.14278531135085, 58.55711662992685, 203.7528418963022, -5.704947648230245, 790.2594182165928, -131.31631385374902, 389.3349171977332, 0.0, 0.0, 0.0, 0.0, 0.0, 0.0, 0.0, 0.0, 0.0, 0.0, 0.0, 0.0, 0.0, 1790785258.840859, 0.0, 2026-09-30 13:20:58.840
172, 13.562493834545778, 6.881742371986585, 54.853693260539316, 4.709212143617414, 103.55971127326174, -18.512460645399784, 154.3799884171416, -25.130901816453544, 250.87064103264376, 6.698973535075538, 278.32135049458066, -0.024805067093268462, 465.87307578888414, 57.60868861840058, 154.95182233712012, 194.47634331685117, 0.0, 0.0, 0.0, 0.0, 0.0, 0.0, 0.0, 0.0, 0.0, 0.0, 0.0, 0.0, 0.0, 1790785258.8409007, 0.0, 2026-09-30 13:20:58.840
173, 11.782392046447436, 14.350335943000326, 40.60080076238316, 20.983740266355433, 75.7254441401014, 17.53538954984335, 109.00639622930748, 7.705719479521676, 161.92593091209028, -36.54185942050512, 191.32586835311395, -35.46053092791675, 358.4352056802732, -68.9213828015489, 441.0522368016397, -60.93658884376612, 0.0, 0.0, 0.0, 0.0, 0.0, 0.0, 0.0, 0.0, 0.0, 0.0, 0.0, 0.0, 0.0, 1790785258.8409433, 0.0, 2026-09-30 13:20:58.840
174, 9.999999999999753, 21.418738981344692, 26.00935132086132, 48.34759045104978, 37.96029049541158, 85.99084566492071, 79.20172674893846, 124.85400778300829, 59.27380475915241, 312.99933786874175, 61.51409955645546, 238.30544511187972, 91.40826478338636, 273.87810269853935, 12.606439058055741, 421.42968189346533, 0.0, 0.0, 0.0, 0.0, 0.0, 0.0, 0.0, 0.0, 0.0, 0.0, 0.0, 0.0, 0.0, 1790785258.840995, 0.0, 2026-09-30 13:20:58.840
175, 8.221315036201412, 27.68474001175561, 8.232835544399308, 74.20182354215322, 0.12364477963870257, 151.14791849112987, -66.49950005865855, 223.11043890119146, 4.379237763754233, 475.9136408773968, -156.0511354521436, 295.4698230099686, 45.20428846583235, 333.08718975190897, 86.46057648210666, 299.3069436724148, 0.0, 0.0, 0.0, 0.0, 0.0, 0.0, 0.0, 0.0, 0.0, 0.0, 0.0, 0.0, 0.0, 1790785258.841039, 0.0, 2026-09-30 13:20:58.841
176, 6.334863425199202, 35.7144397545086, -2.9877191672837355, 88.52207016655495, -18.356732275237704, 144.33516289835896, -29.585031337427438, 133.8059706390799, 14.811174102306467, 259.6686580960118, 244.1826329584216, 52.540091962807466, 222.91872842293833, -145.57387221101493, 633.6306882649017, -173.35897218341637, 0.0, 0.0, 0.0, 0.0, 0.0, 0.0, 0.0, 0.0, 0.0, 0.0, 0.0, 0.0, 0.0, 1790785258.8410816, 0.0, 2026-09-30 13:20:58.841
177, 4.718707313886513, 42.15436647351049, -11.90557594129939, 92.02713943261205, -5.711217530095027, 122.80641371111079, 44.43372020447251, 63.7993530088951, 195.09437170863947, -74.81355469055202, 540.0922853276227, -51.111295568403705, 315.961702933907, 25.624340309609863, 247.3727050016733, 183.25085056344216, 0.0, 0.0, 0.0, 0.0, 0.0, 0.0, 0.0, 0.0, 0.0, 0.0, 0.0, 0.0, 0.0, 1790785258.8411226, 0.0, 2026-09-30 13:20:58.841
178, 2.9179644660155075, 45.050966180317374, -9.767776461534162, 94.82405330978528, 25.845978151845646, 51.7110529684472, 126.73760932137186, -4.861835160768365, 168.12591140833632, -51.74843446631684, 167.26744968205375, 145.05765302087664, -42.43323537236873, 230.0283219299218, -183.10472088185685, 267.34635156756457, 0.0, 0.0, 0.0, 0.0, 0.0, 0.0, 0.0, 0.0, 0.0, 0.0, 0.0, 0.0, 0.0, 1790785258.841163, 0.0, 2026-09-30 13:20:58.841
179, 1.5807536469396286, 46.991929949886, -5.949124917555807, 68.39899849851503, 64.57512282720863, -15.237768909748368, 161.31625789351182, -11.932792540782657, 118.79619443777413, 149.07737291422822, -52.31472819386485, 627.7520756272331, 54.23878854744359, 137.36359211896038, 240.63159541828566, -196.2184647013559, 0.0, 0.0, 0.0, 0.0, 0.0, 0.0, 0.0, 0.0, 0.0, 0.0, 0.0, 0.0, 0.0, 1790785258.8412035, 0.0, 2026-09-30 13:20:58.841
180, 0.21232448284438554, 45.55306946197395, 0.9658323864373912, 38.58794611745526, 100.0203220722928, -2.3218666670898713, 150.47139776312602, 94.38120293273188, -14.195214653677922, 281.35103081949785, 26.96890915668122, 202.13124361490304, 248.20690158145692, 78.65032732199307, 191.40470702279583, 413.99330705071657, 0.0, 0.0, 0.0, 0.0, 0.0, 0.0, 0.0, 0.0, 0.0, 0.0, 0.0, 0.0, 0.0, 1790785258.8412442, 0.0, 2026-09-30 13:20:58.841
181, -1.2026257969773653, 49.607368351427, 13.821302657528417, 9.123036758028967, 126.01584770127715, -4.896102051706237, 52.34972836341762, 188.57908746408333, -27.275008121679804, 137.31746998842308, 227.43429564248305, -159.4787705964165, 268.8458962910352, 257.5544886661317, -51.41488010824253, 658.1819542714788, 0.0, 0.0, 0.0, 0.0, 0.0, 0.0, 0.0, 0.0, 0.0, 0.0, 0.0, 0.0, 0.0, 1790785258.8412862, 0.0, 2026-09-30 13:20:58.841
182, -2.0742538825579544, 42.8511799301882, 28.78235661493576, -15.543091193547653, 115.52322391829708, 59.902705554232526, -12.208074660177388, 198.197499335044, 92.33246388598577, -75.34741396814229, 225.02232037052073, 130.31879251477955, 33.8081296567653, 323.4458504792294, 167.5432096707267, 82.64474785839677, 0.0, 0.0, 0.0, 0.0, 0.0, 0.0, 0.0, 0.0, 0.0, 0.0, 0.0, 0.0, 0.0, 1790785258.841327, 0.0, 2026-09-30 13:20:58.841
183, -2.7251307536966767, 38.86876415039721, 45.580498053716184, -17.55176368835857, 83.37999880479487, 121.94655186154776, -52.84358513350915, 81.85842617057634, 256.882262901127, -32.81363757297049, 58.80332846698632, 297.8059976315075, 50.5635740965713, 8.968324736319289, 477.13043822560167, 158.79678233274993, 0.0, 0.0, 0.0, 0.0, 0.0, 0.0, 0.0, 0.0, 0.0, 0.0, 0.0, 0.0, 0.0, 1790785258.8413908, 0.0, 2026-09-30 13:20:58.841
184, -2.918996297151022, 33.981980080849304, 54.945404556132125, -10.804145471815957, 35.252421712485486, 124.12645708311955, 42.753448042853364, -18.34374721001683, 162.5408203397743, 179.945245055801, -75.89452072185824, 137.2221250402342, 307.54414419619224, 5.813372104304875, -76.00899645943582, 309.69262659723165, 0.0, 0.0, 0.0, 0.0, 0.0, 0.0, 0.0, 0.0, 0.0, 0.0, 0.0, 0.0, 0.0, 1790785258.8414304, 0.0, 2026-09-30 13:20:58.841
185, -3.649778604102538, 29.853667928317705, 72.15688074678735, 4.895561970782396, -7.082255248876152, 140.22527024533346, 120.82968216033706, -50.04541300490837, 65.22555352374108, 229.51317295028318, 109.71785257745773, 1.9459869109722092, 168.82873521478763, 333.65012442835007, -23.880187456700895, 62.962403142588286, 0.0, 0.0, 0.0, 0.0, 0.0, 0.0, 0.0, 0.0, 0.0, 0.0, 0.0, 0.0, 0.0, 1790785258.8414712, 0.0, 2026-09-30 13:20:58.841
186, -4.750259485823264, 22.29594114808381, 73.96214578083672, 33.294446314096994, -18.139950810752595, 72.63344773990588, 165.76924260497037, 130.15631665540823, 6.637435459328614, 130.04494349101992, 330.1640861216654, 76.67843673857604, 50.0937550626698, 374.9056063329105, 214.2693228353931, 131.80018447251894, 0.0, 0.0, 0.0, 0.0, 0.0, 0.0, 0.0, 0.0, 0.0, 0.0, 0.0, 0.0, 0.0, 1790785258.841512, 0.0, 2026-09-30 13:20:58.841
187, -4.253129053418773, 15.527470478400538, 67.95724084701743, 65.90730129152709, -22.87899837041536, 3.1229823117772497, 146.28798145474758, 324.63349061863914, 23.817089500346896, -79.0349147611607, 166.69644203890815, 366.92765127676375, 107.5401020507945, -43.742132706460495, 132.92618472386167, 336.99957656654885, 0.0, 0.0, 0.0, 0.0, 0.0, 0.0, 0.0, 0.0, 0.0, 0.0, 0.0, 0.0, 0.0, 1790785258.8415525, 0.0, 2026-09-30 13:20:58.841
188, -3.7649385123879693, 7.638231475690331, 59.26052637162837, 85.04580286186814, 18.476927501378864, -11.202204571786396, 65.48901505379217, 167.90113531352412, 329.0922084446995, 30.420826564700135, -60.779407845491704, 143.03501119836466, 299.96925301019996, 346.73707514370074, -85.48118620082957, 33.42973701557493, 0.0, 0.0, 0.0, 0.0, 0.0, 0.0, 0.0, 0.0, 0.0, 0.0, 0.0, 0.0, 0.0, 1790785258.841592, 0.0, 2026-09-30 13:20:58.841
189, -3.860617558414658, 0.6756478559025325, 53.23685822956055, 92.72071105741385, 65.36426809413936, -13.667191929031077, -17.781398807630282, 99.72409222369166, 464.93850682895874, 149.66221096610224, -50.30008140230842, -72.0445484612232, 288.5553012288649, 204.2757380629514, 287.3160210960931, -29.059482433144467, 0.0, 0.0, 0.0, 0.0, 0.0, 0.0, 0.0, 0.0, 0.0, 0.0, 0.0, 0.0, 0.0, 1790785258.8416352, 0.0, 2026-09-30 13:20:58.841
190, -3.167880773584896, -3.8149137375067106, 35.86098698892024, 99.4844135771352, 104.6454847181787, 36.726552448540936, -19.874932583521115, 11.551021450520366, 233.3582249771962, 284.2096394197528, 169.19563336909286, 66.17442439379198, -25.033602042346814, 63.835251794965075, 256.687476116088, 409.02166498886254, 0.0, 0.0, 0.0, 0.0, 0.0, 0.0, 0.0, 0.0, 0.0, 0.0, 0.0, 0.0, 0.0, 1790785258.841676, 0.0, 2026-09-30 13:20:58.841
191, -2.4820795247516187, -7.698520947260334, 19.31624837083666, 81.24385993267022, 114.82210480732273, 96.81876250189953, 15.816778925203408, -68.49840271863218, -18.81966706627867, 126.36937762206355, 319.0493025941328, 243.26785788542816, 280.64811582349284, 54.36791324413376, -124.90525466107147, 93.4866804980642, 0.0, 0.0, 0.0, 0.0, 0.0, 0.0, 0.0, 0.0, 0.0, 0.0, 0.0, 0.0, 0.0, 1790785258.8417165, 0.0, 2026-09-30 13:20:58.841
192, -0.9141972994838703, -8.049848785099726, 4.966172273897936, 50.469343256594534, 115.19089855627769, 120.60490439598762, 105.44416492912987, 49.29276401531216, 4.718947732000004, -20.760758349644263, 50.84885670078717, 230.40831358054461, 302.1537038464576, 354.819283646589, 317.38740138501873, -94.7153405373733, 0.0, 0.0, 0.0, 0.0, 0.0, 0.0, 0.0, 0.0, 0.0, 0.0, 0.0, 0.0, 0.0, 1790785258.8417563, 0.0, 2026-09-30 13:20:58.841
193, 0.3470976485570656, -6.001193912689015, -8.060996784163784, 26.33928494419979, 85.17492279504964, 147.2327747952918, 172.94603407964667, 132.04377751696978, 71.48768581203079, -25.46177875156647, -52.48174076516858, -82.67782570638562, 75.87276194861039, 196.55103909942443, 606.8005419229787, 356.91614307225154, 0.0, 0.0, 0.0, 0.0, 0.0, 0.0, 0.0, 0.0, 0.0, 0.0, 0.0, 0.0, 0.0, 1790785258.8417976, 0.0, 2026-09-30 13:20:58.841
194, 1.502049413032859, -6.6062677829044745, -8.782421495535552, -1.7037124744953687, 37.76058304599095, 92.7625249227188, 124.5545345740185, 225.52646265081827, 247.01166896150025, 151.92969582598695, 85.81619969618313, -34.58202820364153, -114.6198638010855, -93.3136954506513, -82.0646075464451, 264.95416691379967, 0.0, 0.0, 0.0, 0.0, 0.0, 0.0, 0.0, 0.0, 0.0, 0.0, 0.0, 0.0, 0.0, 1790785258.8418376, 0.0, 2026-09-30 13:20:58.841
195, 3.3458403525454585, -2.7493653535120437, -10.834855476893964, -24.351461191353806, -0.003816248662012356, 35.47424991358183, 76.70411197978189, 120.7375099492471, 154.54721381599143, 281.74169633105384, 200.07428875297933, 293.01177651626045, 203.79379415106624, 115.89008650478948, 28.67512690548719, -63.56785238691094, 0.0, 0.0, 0.0, 0.0, 0.0, 0.0, 0.0, 0.0, 0.0, 0.0, 0.0, 0.0, 0.0, 1790785258.8418777, 0.0, 2026-09-30 13:20:58.841
196, 4.636547581392995, 0.5098742752634813, -6.207440551289309, -20.52321957529727, -23.315506967317646, -27.18786560732707, 9.850299163869884, 10.602819391304834, 62.919335149044954, 119.1256491096465, 206.92531180818634, 302.64442263993146, 190.70934661800337, 433.9863722149345, 235.88862800171387, 857.0608330941346, 0.0, 0.0, 0.0, 0.0, 0.0, 0.0, 0.0, 0.0, 0.0, 0.0, 0.0, 0.0, 0.0, 1790785258.8419187, 0.0, 2026-09-30 13:20:58.841
197, 6.349760074133372, 6.798303785021496, 7.487624042946788, 3.165155442108855, -21.30344934394485, -16.204071820767183, -4.63446658547997, -47.603302471692004, -48.57814402906658, -70.74581422397327, -66.04282721414992, 67.9452269305242, 70.49128649420481, 115.27694575357155, 134.23148979038803, 205.86587824610783, 0.0, 0.0, 0.0, 0.0, 0.0, 0.0, 0.0, 0.0, 0.0, 0.0, 0.0, 0.0, 0.0, 1790785258.8419597, 0.0, 2026-09-30 13:20:58.841
198, 8.149209523844032, 14.673122020083316, 18.274889711440686, 17.117365305226148, 22.091151877219623, 7.143353894911513, 7.5043032075042575, 5.992855637441892, -24.83833139624818, -51.228608053583656, -39.10031015062131, 13.804933391727744, -101.68255940392865, 29.545284406596224, -28.243574574995932, -95.060669620554, 0.0, 0.0, 0.0, 0.0, 0.0, 0.0, 0.0, 0.0, 0.0, 0.0, 0.0, 0.0, 0.0, 1790785258.8420086, 0.0, 2026-09-30 13:20:58.842
199, 10.000000000000297, 21.52221288455769, 34.16389135700863, 48.421835712980645, 61.44348712238454, 79.66690257731834, 105.8993683065396, 123.06174570038675, 135.65899228244697, 318.2586043882863, 364.4236915025264, 411.74941363745097, 264.94423240689946, 282.4762833768574, 190.54775722048953, 281.5409128004215, 0.0, 0.0, 0.0, 0.0, 0.0, 0.0, 0.0, 0.0, 0.0, 0.0, 0.0, 0.0, 0.0, 1790785258.8420498, 0.0, 2026-09-30 13:20:58.842
200, 11.833817129236825, 27.68808295183382, 51.43037466548567, 73.37386650740075, 108.20066417780336, 121.88872005226625, 169.53177531944917, 180.69729379887008, 217.72978046742512, 443.83978796287505, 192.91969117989677, 540.8270751207115, 202.26203185999893, 184.171231261643, 214.38321486536594, 246.029915120406, 0.0, 0.0, 0.0, 0.0, 0.0, 0.0, 0.0, 0.0, 0.0, 0.0, 0.0, 0.0, 0.0, 1790785258.8420892, 0.0, 2026-09-30 13:20:58.842
201, 13.342146942201238, 34.48050753288427, 59.84631786766716, 91.38092029401324, 130.80273202211913, 140.70894070232382, 181.79408963312517, 147.2554087218684, 143.50296114611135, 272.9773194155704, 97.2196341182946, 115.9854001917902, 14.36626024175412, -83.1485020484657, 46.64503189239463, -239.41395423198344, 0.0, 0.0, 0.0, 0.0, 0.0, 0.0, 0.0, 0.0, 0.0, 0.0, 0.0, 0.0, 0.0, 1790785258.8421369, 0.0, 2026-09-30 13:20:58.842
202, 15.281059900519331, 39.78645873167231, 70.20765184932057, 98.63525226713509, 122.84728031132691, 111.8831114982062, 83.0781524512505, 49.23446240671469, 14.22835495768446, -15.300505711165556, -113.09507330554291, -69.60290753182588, -28.38850822527553, 50.2632659293474, 174.5862366517383, 208.60687390276894, 0.0, 0.0, 0.0, 0.0, 0.0, 0.0, 0.0, 0.0, 0.0, 0.0, 0.0, 0.0, 0.0, 1790785258.842168, 0.0, 2026-09-30 13:20:58.842
203, 17.135575303726135, 43.32354640743948, 70.80326019478792, 95.60385982174657, 83.44905031355995, 48.34702103987637, 11.87507460289175, -9.5622711168282, 15.67553519362842, 14.49050515081926, 87.19770214404662, 161.0546311155116, 201.08549186257912, 606.8609838945526, 227.8671925199787, 206.62011526285954, 0.0, 0.0, 0.0, 0.0, 0.0, 0.0, 0.0, 0.0, 0.0, 0.0, 0.0, 0.0, 0.0, 1790785258.8421996, 0.0, 2026-09-30 13:20:58.842
204, 17.919725052651813, 44.61508511590512, 68.17993867494502, 66.20227208716558, 39.37773610146108, -24.519864487050327, -24.478530920048968, 19.940848482348642, 48.481361796247285, 189.08186477851615, 301.57391340109666, 292.1835786560031, 223.1703391102469, 293.5133564770212, 47.87217113607818, -34.17654196638344, 0.0, 0.0, 0.0, 0.0, 0.0, 0.0, 0.0, 0.0, 0.0, 0.0, 0.0, 0.0, 0.0, 1790785258.8422315, 0.0, 2026-09-30 13:20:58.842
205, 20.013890707010766, 47.64676310904356, 57.685865955660375, 38.513714724617415, -3.650364435003212, -31.06796345687013, 21.38049636229421, 86.85256136120618, 161.20808723259805, 289.9730704475011, 170.6688604642149, 95.045146011801, -87.29087299971732, -167.75547883323543, -17.296472487896295, 250.99107752581352, 0.0, 0.0, 0.0, 0.0, 0.0, 0.0, 0.0, 0.0, 0.0, 0.0, 0.0, 0.0, 0.0, 1790785258.8422632, 0.0, 2026-09-30 13:20:58.842
206, 21.35063233195798, 49.82727690720351, 44.56690454014733, 15.311748109778357, -19.758229585742768, -0.9973150549181966, 92.96077823128942, 199.36722635539525, 174.25302442241423, 130.99645282355306, 23.838898209942812, 6.534112874700327, 62.995723774972134, 235.82130827244993, 261.75198176291684, 451.2426461739875, 0.0, 0.0, 0.0, 0.0, 0.0, 0.0, 0.0, 0.0, 0.0, 0.0, 0.0, 0.0, 0.0, 1790785258.842295, 0.0, 2026-09-30 13:20:58.842
207, 22.44574363166236, 42.69143040318025, 31.05266571958773, -2.1689622308631726, -18.24553163215228, 59.9020633161852, 176.69911862464005, 152.5676477849015, 86.9004646659616, 31.376235149020104, -87.87689397452934, 129.68826747418893, 262.85937995855664, 226.16522773462404, 272.03158737148425, 80.14855051376482, 0.0, 0.0, 0.0, 0.0, 0.0, 0.0, 0.0, 0.0, 0.0, 0.0, 0.0, 0.0, 0.0, 1790785258.842327, 0.0, 2026-09-30 13:20:58.842
208, 23.252260850713558, 42.50202892493928, 17.506605547335752, -25.775235962801943, 20.61596522523942, 116.02276255920798, 132.28435141955083, 83.69386660213058, 11.389591940656231, -21.188699384770658, 177.53581108495177, 307.3785920653903, 364.6916794928085, 42.53379621739852, -113.04739658727834, 159.09918770109846, 0.0, 0.0, 0.0, 0.0, 0.0, 0.0, 0.0, 0.0, 0.0, 0.0, 0.0, 0.0, 0.0, 1790785258.842361, 0.0, 2026-09-30 13:20:58.842
209, 23.661817711432924, 34.13370858299052, -0.7126329156977107, -10.940602460272409, 62.262676712180784, 168.0992100928515, 190.95459769246256, -12.959578215856354, 32.71473034472325, 167.73597018312168, 209.62326152348348, 140.93342541285216, -18.010564497539008, 19.61804005675758, 479.9514787330885, 896.1198791493619, 0.0, 0.0, 0.0, 0.0, 0.0, 0.0, 0.0, 0.0, 0.0, 0.0, 0.0, 0.0, 0.0, 1790785258.8423939, 0.0, 2026-09-30 13:20:58.842
210, 24.339879883894966, 28.350810934172102, -2.3282985091790707, 12.00526465480591, 115.08053166836841, 124.90414529194823, 22.30319975445957, -2.4829270657002382, 133.64704544059066, 173.89497209558442, 110.26295495064896, 3.668802414495886, 141.25518012547056, 287.5849800300924, 199.97854249711148, 68.0199954353285, 0.0, 0.0, 0.0, 0.0, 0.0, 0.0, 0.0, 0.0, 0.0, 0.0, 0.0, 0.0, 0.0, 1790785258.842426, 0.0, 2026-09-30 13:20:58.842
211, 24.58266163223508, 22.090032240700037, -11.406525828108407, 33.96432264322824, 133.40761603251883, 70.24919331441517, -27.966548194008055, 60.51837332793971, 267.9123427358265, 131.99579342428112, -1.663885778010112, 84.67121759014188, 291.73037739964883, 200.94585882959223, -48.40966749464988, 226.7267173366489, 0.0, 0.0, 0.0, 0.0, 0.0, 0.0, 0.0, 0.0, 0.0, 0.0, 0.0, 0.0, 0.0, 1790785258.8424585, 0.0, 2026-09-30 13:20:58.842
212, 24.11588214184183, 14.883855767780506, -9.069310912819283, 65.15052396768877, 122.87832304109264, 14.83686678855625, -6.512486988925161, 155.06004959263555, 132.54311711570358, -33.83810623428536, 41.60236248230193, 221.87419878526526, 151.39211848862394, -109.54265105829288, 162.17235672381452, 536.5989371988528, 0.0, 0.0, 0.0, 0.0, 0.0, 0.0, 0.0, 0.0, 0.0, 0.0, 0.0, 0.0, 0.0, 1790785258.8424895, 0.0, 2026-09-30 13:20:58.842
213, 23.90465643116822, 9.21287229810795, -7.601893488157209, 84.75039602565022, 82.03408088315025, -38.4816515739887, 76.32849550253712, 230.35534847608835, 25.55311989967936, -51.9675997098301, 287.22973544576314, 152.1894325839635, -116.56845220138197, 170.56807193434642, 385.92775561066463, 24.866922898726813, 0.0, 0.0, 0.0, 0.0, 0.0, 0.0, 0.0, 0.0, 0.0, 0.0, 0.0, 0.0, 0.0, 1790785258.8425214, 0.0, 2026-09-30 13:20:58.842
214, 22.845745692516676, 2.6978218466517525, 9.042306462608742, 99.96983744355667, 37.92893511902926, 5.986961842777411, 121.81445324074342, 107.3878485083784, -45.93927546186049, 173.57489218545254, 175.60873488061213, -76.90898189175255, 125.97054708374765, 366.88067559393915, 110.23259260136122, 33.123101007643044, 0.0, 0.0, 0.0, 0.0, 0.0, 0.0, 0.0, 0.0, 0.0, 0.0, 0.0, 0.0, 0.0, 1790785258.842553, 0.0, 2026-09-30 13:20:58.842
215, 22.62217306565822, -4.099217427108385, 23.608257927123482, 89.94541697454139, -12.699645566006986, 44.31015559316541, 179.2365238054398, 23.80841047422782, 78.66251327139047, 197.78322104720598, 8.070417149965735, 67.20832678392065, 237.91168332064046, 26.405420712109134, 115.25574698623544, 318.8725233423084, 0.0, 0.0, 0.0, 0.0, 0.0, 0.0, 0.0, 0.0, 0.0, 0.0, 0.0, 0.0, 0.0, 1790785258.8425848, 0.0, 2026-09-30 13:20:58.842
216, 21.45005256980844, -8.0360297234507, 39.99534799869008, 85.15695633109618, -35.0004500357264, 99.04802832840096, 105.94543879931712, -32.95899103437364, 384.628691318296, 115.84624362057042, -87.14422666516464, 202.30900552570424, 114.50782613790498, -53.04274682729843, 280.10779877692994, 121.34595298909923, 0.0, 0.0, 0.0, 0.0, 0.0, 0.0, 0.0, 0.0, 0.0, 0.0, 0.0, 0.0, 0.0, 1790785258.8426163, 0.0, 2026-09-30 13:20:58.842
217, 20.504880828982643, -7.026463305253362, 55.16228790983121, 51.77512544527494, -0.9941412089543249, 136.4826370054389, 23.77195292227509, 66.80092699877028, 424.3933645097891, -18.761021366077415, 135.6603907113704, 246.9870968428578, -100.06709375324698, 312.6645464741041, 136.26692418310915, 80.27671002058808, 0.0, 0.0, 0.0, 0.0, 0.0, 0.0, 0.0, 0.0, 0.0, 0.0, 0.0, 0.0, 0.0, 1790785258.8426483, 0.0, 2026-09-30 13:20:58.842
218, 19.746831921572962, -7.277372636947089, 69.46014937029622, 25.552363732783725, 17.038034727985604, 159.67662488378085, -40.758718399819216, 308.0696294526633, 99.46185211008896, 0.4198513516284379, 264.34595243450957, 1.9006979927202963, 168.98067935047, 287.47844396610935, -193.77069528192925, 335.53281744877904, 0.0, 0.0, 0.0, 0.0, 0.0, 0.0, 0.0, 0.0, 0.0, 0.0, 0.0, 0.0, 0.0, 1790785258.8426802, 0.0, 2026-09-30 13:20:58.842
219, 18.231246445477083, -6.448424840164304, 77.22120639432423, 3.6020013202024117, 67.04187685807521, 94.2151908447253, -15.844053442409887, 190.5225758611962, 27.895703832045207, 148.2869036012277, 240.05515463045114, 75.15417360087886, 352.59718785442, 80.62063374483475, 217.80478963885457, 123.87930058790718, 0.0, 0.0, 0.0, 0.0, 0.0, 0.0, 0.0, 0.0, 0.0, 0.0, 0.0, 0.0, 0.0, 1790785258.8427129, 0.0, 2026-09-30 13:20:58.842
220, 16.815535446483146, -4.026529429537497, 67.10798904285448, -7.924864086502431, 91.17500232463857, 20.409820927468004, 63.67221013034681, 118.8925600770504, -49.65910433171612, 216.9217228855864, -141.7755499427507, 476.67758098797265, 33.516096121582265, 255.118672276092, 278.38132561682994, -158.95275025625574, 0.0, 0.0, 0.0, 0.0, 0.0, 0.0, 0.0, 0.0, 0.0, 0.0, 0.0, 0.0, 0.0, 1790785258.8427448, 0.0, 2026-09-30 13:20:58.842
221, 15.36452253959417, 0.18062764022341327, 67.9226382518807, -21.059851903995778, 111.9983319701436, -8.95369894975903, 148.03852515713535, 26.36392239569578, 111.73527406875026, 131.7243602682637, 85.03385637080973, 561.8731102302751, -46.160039093254795, 588.3576737904716, -188.28489413684127, 412.2864158814027, 0.0, 0.0, 0.0, 0.0, 0.0, 0.0, 0.0, 0.0, 0.0, 0.0, 0.0, 0.0, 0.0, 1790785258.842777, 0.0, 2026-09-30 13:20:58.842
222, 13.52446587858615, 7.0165724779744725, 53.97706713581223, -8.788347368415927, 109.1669096804003, -2.804996600849293, 156.16724480573552, -10.040651739072203, 189.90120841942013, 9.153114955263447, 277.1949509053277, -42.67074784014258, 266.9819619155738, 164.5176080167583, 160.22154699638398, 192.5272483405311, 0.0, 0.0, 0.0, 0.0, 0.0, 0.0, 0.0, 0.0, 0.0, 0.0, 0.0, 0.0, 0.0, 1790785258.8428092, 0.0, 2026-09-30 13:20:58.842
223, 11.747986570439167, 14.386664272206453, 39.92414631809773, 23.29298607196756, 79.66168268695816, 17.505655403925267, 118.12183279847511, -5.624065481319292, 141.36187655572022, -5.6425120329007115, 216.6590902653126, 18.66755907934089, 284.26731391188474, 23.291180267435905, 603.1291710636426, -38.80120745970177, 0.0, 0.0, 0.0, 0.0, 0.0, 0.0, 0.0, 0.0, 0.0, 0.0, 0.0, 0.0, 0.0, 1790785258.8428411, 0.0, 2026-09-30 13:20:58.842
224, 9.999999999999684, 21.33961148042989, 26.11493440229466, 49.58614802595778, 37.952344453998236, 75.09217214382235, 47.29305152729687, 117.00348860270807, 54.65568612478418, 288.53733515695194, 1.6697790237573003, 186.77350587190898, 93.48007665312144, 205.7638583066672, 84.76599984184989, 569.6067445570516, 0.0, 0.0, 0.0, 0.0, 0.0, 0.0, 0.0, 0.0, 0.0, 0.0, 0.0, 0.0, 0.0, 1790785258.842873, 0.0, 2026-09-30 13:20:58.842
225, 8.286304868764255, 27.782335234538216, 12.548379107099326, 68.06016832996718, 2.5547945750933394, 117.95128018549198, -23.089858936872744, 161.49855289024666, -19.808972592328715, 380.7595874921566, -85.88165576823803, 332.20830380422024, -94.35154805600891, 240.6013642138637, 43.09292598698036, 476.002238668828, 0.0, 0.0, 0.0, 0.0, 0.0, 0.0, 0.0, 0.0, 0.0, 0.0, 0.0, 0.0, 0.0, 1790785258.8429048, 0.0, 2026-09-30 13:20:58.842
226, 6.406792546359991, 35.52528658908778, -5.33971543315711, 94.43770853964372, -32.06875116606852, 151.49921782417817, -17.53261599483065, 186.68346622282922, 19.693495281464465, 242.82710563050247, 129.7338194709415, 14.162754916218645, 199.9857257144768, -131.01863994671226, 307.26335156707296, -124.39174141034931, 0.0, 0.0, 0.0, 0.0, 0.0, 0.0, 0.0, 0.0, 0.0, 0.0, 0.0, 0.0, 0.0, 1790785258.8429368, 0.0, 2026-09-30 13:20:58.842
227, 4.9395304515545515, 38.79342007351765, -12.778931761391199, 106.91213911583012, -14.953127566865973, 113.75092032299762, 52.62491685470914, 52.76619328247835, 134.17596298757474, 10.642572106561445, 264.7612361710354, -51.66368012840755, 439.78872426046246, 110.88710063320389, 125.73977781320303, 346.887296906307, 0.0, 0.0, 0.0, 0.0, 0.0, 0.0, 0.0, 0.0, 0.0, 0.0, 0.0, 0.0, 0.0, 1790785258.8429852, 0.0, 2026-09-30 13:20:58.842
228, 3.0901224323687284, 44.30549222612177, -7.3484963168079105, 90.79121661579545, 21.3218931017998, 50.17109547652297, 112.61674445983465, -50.13943290176036, 200.27832164482396, 30.10395271552234, 157.2407899414385, 152.10648197698538, 60.03261914535119, 409.1987334814528, -121.88313311653042, 343.56704239363125, 0.0, 0.0, 0.0, 0.0, 0.0, 0.0, 0.0, 0.0, 0.0, 0.0, 0.0, 0.0, 0.0, 1790785258.843027, 0.0, 2026-09-30 13:20:58.843
229, 1.728461672447363, 47.486743807788585, -4.837925924285003, 66.55905212248491, 60.60393383534088, -13.169908246598155, 146.32475678124166, -26.28206866136121, 124.50952293052632, 135.70412719111397, 26.47605714403383, 323.58865699509226, 102.27429459648764, 138.3472210517568, 319.5874829483264, -168.57422213853397, 0.0, 0.0, 0.0, 0.0, 0.0, 0.0, 0.0, 0.0, 0.0, 0.0, 0.0, 0.0, 0.0, 1790785258.84306, 0.0, 2026-09-30 13:20:58.843
230, 0.4088770680548084, 49.175815707225944, 3.407862793539895, 38.410409517992306, 110.99101466414028, -40.16681238411776, 143.6309932488691, 91.15884169282167, -2.852240648973847, 179.22753162779588, 14.504867284507654, 73.78938241701681, 301.95698880429075, -19.414983548533513, 215.4807117138148, 180.3276160495611, 0.0, 0.0, 0.0, 0.0, 0.0, 0.0, 0.0, 0.0, 0.0, 0.0, 0.0, 0.0, 0.0, 1790785258.843092, 0.0, 2026-09-30 13:20:58.843
231, -0.7706095445182957, 47.43501351630703, 15.398749625375245, 10.719090390020234, 113.67506304237911, 10.052569320689159, 56.99017839170824, 206.0392349495226, -67.84776869142809, 129.3058223080889, 243.76394322009858, -149.53867598855965, 237.58771554155408, 215.3793343642574, -170.33783269674484, 391.7628412268378, 0.0, 0.0, 0.0, 0.0, 0.0, 0.0, 0.0, 0.0, 0.0, 0.0, 0.0, 0.0, 0.0, 1790785258.8431246, 0.0, 2026-09-30 13:20:58.843
232, -2.1248112952691027, 46.611252282403626, 28.91499533378952, -4.326038693644833, 106.90307551637827, 59.86141110399489, 10.328793482913788, 168.31619269526865, 92.4080484159529, 1.2591590220156235, 295.0895578214081, 130.20110034996992, -112.61888037693114, 413.2842032795703, 167.07145846713712, 8.319680276460417, 0.0, 0.0, 0.0, 0.0, 0.0, 0.0, 0.0, 0.0, 0.0, 0.0, 0.0, 0.0, 0.0, 1790785258.8431568, 0.0, 2026-09-30 13:20:58.843
233, -2.2482350898780883, 42.19808510685627, 43.902857594278075, -19.962208097395468, 76.2145048275957, 115.23969915652356, -51.824834218742, 82.17828698670834, 194.61791737413498, 20.35201840277709, 21.989149455629203, 329.0437612055632, 57.25510504166937, 55.66017310444455, 254.48865424547893, 159.48210308279639, 0.0, 0.0, 0.0, 0.0, 0.0, 0.0, 0.0, 0.0, 0.0, 0.0, 0.0, 0.0, 0.0, 1790785258.843189, 0.0, 2026-09-30 13:20:58.843
234, -3.195702554038302, 33.984981509802, 58.85366284224387, -10.454432560981637, 32.592905102144464, 131.6590229293007, 38.510116989224706, -11.205330482990291, 207.36111021970788, 142.47562820778077, -6.577960832664658, 137.72718171072006, 241.54099264642457, 45.69196126917386, 18.374466525191565, 419.6052769278659, 0.0, 0.0, 0.0, 0.0, 0.0, 0.0, 0.0, 0.0, 0.0, 0.0, 0.0, 0.0, 0.0, 1790785258.8432205, 0.0, 2026-09-30 13:20:58.843
235, -3.959070499200344, 28.64882445605665, 67.94772513599624, 12.711927830544312, -13.580736187532843, 106.52141486118205, 118.37869344978935, -58.348508453530144, 50.08622374150648, 215.0676889239362, 109.51557117968063, -9.300666760731275, 148.18064728513886, 342.74166287034643, 79.25868630701937, -93.02503489266621, 0.0, 0.0, 0.0, 0.0, 0.0, 0.0, 0.0, 0.0, 0.0, 0.0, 0.0, 0.0, 0.0, 1790785258.8432524, 0.0, 2026-09-30 13:20:58.843
236, -3.677851214932655, 22.264507654297933, 75.83935681499685, 34.066550330750545, -3.005080763523388, 70.6776276206788, 149.18443144181725, 69.36437231837822, -91.97752008517764, 113.2268272147436, 279.40930455420903, 74.5637325091551, -84.2449205091745, 197.01668463282073, 245.79453391387852, 73.60742167353473, 0.0, 0.0, 0.0, 0.0, 0.0, 0.0, 0.0, 0.0, 0.0, 0.0, 0.0, 0.0, 0.0, 1790785258.8432844, 0.0, 2026-09-30 13:20:58.843
237, -4.48173909899783, 15.053047995420084, 71.65318001744251, 65.83453377085597, -15.293202707027703, 5.966690489469116, 149.74438361626954, 195.1987709956647, 22.862791239828653, -48.9878094290695, 168.68311399685723, 231.01201958175736, 104.17737092179449, -134.82151962481043, 142.49386419607555, 236.21913711266433, 0.0, 0.0, 0.0, 0.0, 0.0, 0.0, 0.0, 0.0, 0.0, 0.0, 0.0, 0.0, 0.0, 1790785258.8433168, 0.0, 2026-09-30 13:20:58.843
238, -4.034557697637782, 8.640711629462825, 60.496089380113716, 86.11354468172556, 14.081136925226495, -2.202818531895872, 66.83381995394805, 226.90740004784456, 128.3040377616442, -50.37495516596758, -43.54228397309302, 182.04886143061898, 363.6060796793759, 326.4659583617101, -182.53280554105697, -59.429085078114895, 0.0, 0.0, 0.0, 0.0, 0.0, 0.0, 0.0, 0.0, 0.0, 0.0, 0.0, 0.0, 0.0, 1790785258.8433485, 0.0, 2026-09-30 13:20:58.843
239, -3.942990171923066, 1.6116875011506693, 54.11041182355615, 87.92490712992591, 62.064212650944015, 1.8946158244860953, 8.664353005207388, 113.59731584243212, 265.99047801547437, 137.98771801939182, 35.200546715374344, -59.76236811051328, 134.16772444911354, 555.6165369196639, 574.8920497670497, 144.78092820430763, 0.0, 0.0, 0.0, 0.0, 0.0, 0.0, 0.0, 0.0, 0.0, 0.0, 0.0, 0.0, 0.0, 1790785258.8433805, 0.0, 2026-09-30 13:20:58.843
240, -3.138426495916958, -1.808508321392722, 35.96690678503745, 102.08635250635635, 101.44020343693887, 33.857949874262985, -17.39215394252767, 3.599821015963016, 152.4363802454543, 243.99041124002946, 166.7592464971179, 125.76863342265824, -147.74227504286716, 23.65439524290983, 638.8177520356267, 632.5532854985147, 0.0, 0.0, 0.0, 0.0, 0.0, 0.0, 0.0, 0.0, 0.0, 0.0, 0.0, 0.0, 0.0, 1790785258.8434129, 0.0, 2026-09-30 13:20:58.843
241, -1.9799619511825366, -8.060853222272389, 21.819691843441042, 78.02703955839024, 106.77378281125846, 97.18605072870716, 14.483077080557464, -62.798972295128635, -10.128141499678861, 114.04520402871194, 479.42326614217893, 443.6478968463575, 154.96342778242834, 51.033049111575636, -109.62882862717873, 162.94408211834102, 0.0, 0.0, 0.0, 0.0, 0.0, 0.0, 0.0, 0.0, 0.0, 0.0, 0.0, 0.0, 0.0, 1790785258.8434455, 0.0, 2026-09-30 13:20:58.843
242, -1.2830670321127648, -7.04744478672573, 2.344944820998297, 54.88328560391545, 111.92798166558036, 126.90114909665641, 123.09884651498248, 36.06145911667281, -86.2200271695049, -36.02611109068255, 161.0711097269922, 228.82653988697297, 297.1708696914143, 234.9582343524667, 175.18510132608515, 23.93334200243342, 0.0, 0.0, 0.0, 0.0, 0.0, 0.0, 0.0, 0.0, 0.0, 0.0, 0.0, 0.0, 0.0, 1790785258.8434784, 0.0, 2026-09-30 13:20:58.843
243, 0.33672823895453696, -6.634162349176769, -5.210793224932061, 27.62879248147234, 73.30642385023974, 119.71113657932082, 180.3881776242371, 151.9700701848891, 164.14436105948994, -10.123073437473536, -69.30883787398793, -75.04710054558987, 113.23012767294139, 260.5860369244455, 481.56115117520875, 263.95427974009704, 0.0, 0.0, 0.0, 0.0, 0.0, 0.0, 0.0, 0.0, 0.0, 0.0, 0.0, 0.0, 0.0, 1790785258.8435109, 0.0, 2026-09-30 13:20:58.843
244, 1.9877885911817206, -7.082750116865714, -13.909804781047832, -6.692463510870759, 37.31222350463871, 89.58759597330882, 290.1589722871789, 234.0210602304308, 372.6845146114367, 175.85441243926158, 100.94804992943097, -13.808295025558635, -44.54540221717818, -96.61571377394912, -86.69777457233715, 153.96997036069988, 0.0, 0.0, 0.0, 0.0, 0.0, 0.0, 0.0, 0.0, 0.0, 0.0, 0.0, 0.0, 0.0, 1790785258.8435428, 0.0, 2026-09-30 13:20:58.843
245, 3.3015971882082322, -4.3906588232778, -6.526494003729859, -9.304211411445365, 1.9910661516364812, 20.62867647703677, 137.66127240978264, 130.73852512215618, 202.13185829752268, 208.95250621363675, 301.7663372115095, 220.92020527795168, 162.60651222652302, 125.9202924245556, 103.64795395512303, -1.3284222155627674, 0.0, 0.0, 0.0, 0.0, 0.0, 0.0, 0.0, 0.0, 0.0, 0.0, 0.0, 0.0, 0.0, 1790785258.8435748, 0.0, 2026-09-30 13:20:58.843
246, 4.782160932079413, 2.609028318457618, -10.060372089671425, -18.945149949027694, -32.13441480700325, -9.004953326865845, 17.831584080319587, 16.240550789778183, 74.53313394559694, 135.06976319601037, 145.39074896141608, 308.7690427741635, 654.9076399037706, 457.4578276429193, 225.59771754219463, 202.47448722985501, 0.0, 0.0, 0.0, 0.0, 0.0, 0.0, 0.0, 0.0, 0.0, 0.0, 0.0, 0.0, 0.0, 1790785258.8436093, 0.0, 2026-09-30 13:20:58.843
247, 6.634370313215701, 6.748358829060361, 1.1712483682182047, -2.1696956463407275, -8.237669321574948, -21.690549500589086, -7.27779085119748, -100.19779088826465, -79.31082580207044, 31.223321511059012, -74.21260419477059, 37.34720341849669, 121.2878776484189, 109.54714377765302, 144.70414070835145, 201.63312432752977, 0.0, 0.0, 0.0, 0.0, 0.0, 0.0, 0.0, 0.0, 0.0, 0.0, 0.0, 0.0, 0.0, 1790785258.8436418, 0.0, 2026-09-30 13:20:58.843
248, 8.260713775984502, 14.38483820511909, 17.563493334750582, 23.780168597917516, 19.584379673143303, 13.025995093783258, 24.104609727299874, 48.25681316662721, -15.725274417729906, -46.11551512742409, -56.609761260227, -80.37948901148002, -109.92012690454618, -45.11142016239174, 27.889679816025975, 57.92490044411234, 0.0, 0.0, 0.0, 0.0, 0.0, 0.0, 0.0, 0.0, 0.0, 0.0, 0.0, 0.0, 0.0, 1790785258.8436773, 0.0, 2026-09-30 13:20:58.843
249, 10.000000000000378, 21.52904547107696, 33.87649779775341, 48.20099555989743, 66.82074631738865, 79.24178852976252, 99.19437613709123, 239.75219933991616, 155.0100135300366, 362.221542161236, 153.65624588360305, 241.54953876539014, 262.0184643222349, 308.9095605567717, 362.33748374073355, 357.2987419721838, 0.0, 0.0, 0.0, 0.0, 0.0, 0.0, 0.0, 0.0, 0.0, 0.0, 0.0, 0.0, 0.0, 1790785258.84371, 0.0, 2026-09-30 13:20:58.843
250, 11.83769163080979, 28.864611716466676, 50.34982419571986, 68.96280576408381, 110.65039216381373, 151.04425923989888, 176.4001659621656, 221.46518008716833, 258.1880780691737, 442.9414415016105, 241.1830458028968, 268.85115495899134, 270.43590530607736, 308.8062410406589, 320.13191190406343, 240.3971688550427, 0.0, 0.0, 0.0, 0.0, 0.0, 0.0, 0.0, 0.0, 0.0, 0.0, 0.0, 0.0, 0.0, 1790785258.8437417, 0.0, 2026-09-30 13:20:58.843
251, 13.464130061551366, 34.5392352210824, 59.85597576967231, 84.37508364087017, 110.61633474036051, 148.82415699536642, 129.2483466691864, 177.0501663841905, 145.21227566036183, 261.09249631969374, 85.05377880748134, 72.49863345220675, 0.36801610535701457, -46.1200410753039, -74.9765135753195, -70.53832924032184, 0.0, 0.0, 0.0, 0.0, 0.0, 0.0, 0.0, 0.0, 0.0, 0.0, 0.0, 0.0, 0.0, 1790785258.8437736, 0.0, 2026-09-30 13:20:58.843
252, 15.415834464658511, 40.99784610221002, 74.00135096881725, 87.87834875575057, 106.72263568684224, 105.08347013460326, 90.71280702629687, 61.30143097862229, 23.74460145632993, 3.8207365884832143, -107.80077392947308, -111.67801146114445, 43.547484328877886, 90.78824936275082, 163.3092154467737, 224.8862641313977, 0.0, 0.0, 0.0, 0.0, 0.0, 0.0, 0.0, 0.0, 0.0, 0.0, 0.0, 0.0, 0.0, 1790785258.8438056, 0.0, 2026-09-30 13:20:58.843
253, 16.59948162491517, 44.76485702857937, 66.20906381621437, 85.2522410741324, 84.17158460817059, 51.918327902777875, 2.7297493884267965, -11.261622981019528, -10.885284267569332, -48.94672166320308, 56.23030095992112, 161.08317946084156, 261.7479318117309, 257.9900023435157, 423.26810436030365, 340.25198480141773, 0.0, 0.0, 0.0, 0.0, 0.0, 0.0, 0.0, 0.0, 0.0, 0.0, 0.0, 0.0, 0.0, 1790785258.8438377, 0.0, 2026-09-30 13:20:58.843
254, 18.256944173708302, 48.49483608352712, 67.53715196627107, 67.84717550273744, 36.191486608400304, -8.23631379456073, 4.709090960908313, -38.29088524434451, 57.697047480256686, 160.01270075734618, 229.39018961594638, 216.4126978378804, 313.8770846712629, 279.52810272874893, -27.45266707345357, -183.23928885880315, 0.0, 0.0, 0.0, 0.0, 0.0, 0.0, 0.0, 0.0, 0.0, 0.0, 0.0, 0.0, 0.0, 1790785258.84387, 0.0, 2026-09-30 13:20:58.843
255, 20.101764008996362, 49.55404522158926, 56.844106927150165, 38.392866208181275, -3.5159739259703926, -32.97952232038709, 5.703358790304222, 91.83189811855551, 225.87198679648253, 295.7071229992441, 234.77210329866907, 93.056294273139, 64.71300256021338, 29.07512396096422, 69.71580923499263, 433.08678974112837, 0.0, 0.0, 0.0, 0.0, 0.0, 0.0, 0.0, 0.0, 0.0, 0.0, 0.0, 0.0, 0.0, 1790785258.8439023, 0.0, 2026-09-30 13:20:58.843
0, 20.37730578286948, 48.52077241358934, 48.927219737719525, 13.448587988238312, -14.867458322880225, 17.374838324220782, 178.38765785125932, 362.4639245163231, 487.9849953575135, 236.88553998698154, 58.36795992295504, -32.52113514340121, 107.11662696833122, 403.74421521235456, 777.8610713444984, 729.1999458047145, 0.0, 0.0, 0.0, 0.0, 0.0, 0.0, 0.0, 0.0, 0.0, 0.0, 0.0, 0.0, 0.0, 1790785258.843934, 0.0, 2026-09-30 13:20:58.843
1, 21.656724883108193, 44.509502012879565, 31.2198370122358, -11.992610711155827, -21.454564168913038, 59.85530856352847, 292.38356241366097, 384.75626404976185, 167.47263612482976, -81.7126990885094, -41.57438446531842, 235.41025190448713, 687.700047399595, 515.7675238130365, 288.08254851703043, -47.21520509056779, 0.0, 0.0, 0.0, 0.0, 0.0, 0.0, 0.0, 0.0, 0.0, 0.0, 0.0, 0.0, 0.0, 1790785258.8439732, 0.0, 2026-09-30 13:20:58.843
2, 22.353901758279473, 41.3216349245165, 13.867041294529283, -24.051329284432185, 18.06796158058349, 123.66659136372313, 194.84424267943444, 83.79672947296845, 23.606756475773338, 6.129438500628424, 156.2579536130938, 289.0201539588379, 176.34121623962812, -79.78503399593365, -97.9592501869704, 158.64607549044592, 0.0, 0.0, 0.0, 0.0, 0.0, 0.0, 0.0, 0.0, 0.0, 0.0, 0.0, 0.0, 0.0, 1790785258.8440084, 0.0, 2026-09-30 13:20:58.844
3, 23.727122054704992, 34.397275327593505, 3.1432673761962526, -17.29973295928602, 60.76740929508979, 153.00852525992485, 94.57671320123445, -2.7190402371477376, -18.821044584276265, 187.30136936385958, 185.06847614738012, 141.22239707854916, 59.24227850805754, 30.80206920260926, 229.12081277700602, 204.95030079030934, 0.0, 0.0, 0.0, 0.0, 0.0, 0.0, 0.0, 0.0, 0.0, 0.0, 0.0, 0.0, 0.0, 1790785258.844042, 0.0, 2026-09-30 13:20:58.844
4, 23.812253832192482, 29.301947929030526, -5.751047867436839, 12.873382354500126, 96.9708499134631, 144.0787284329761, 12.157058805984654, -8.110214251150552, 132.12019451804093, 224.5200690739706, 110.47145375917684, -113.03528016090169, 46.78109503606582, 251.03833968415557, 266.8611291299345, 67.01546947153273, 0.0, 0.0, 0.0, 0.0, 0.0, 0.0, 0.0, 0.0, 0.0, 0.0, 0.0, 0.0, 0.0, 1790785258.8440747, 0.0, 2026-09-30 13:20:58.844
5, 24.070583373984825, 22.045922866160687, -17.70633603022665, 33.4466477766613, 132.0275131867782, 73.15338809044783, -17.81562787890107, 61.90083439885018, 225.4627384955295, 121.73266931779897, -77.54698623490097, 67.10159684069066, 323.765530943699, 182.9967422876759, 52.085392852462434, 138.68732984666255, 0.0, 0.0, 0.0, 0.0, 0.0, 0.0, 0.0, 0.0, 0.0, 0.0, 0.0, 0.0, 0.0, 1790785258.8441076, 0.0, 2026-09-30 13:20:58.844
6, 24.7045154449933, 15.232238580209064, -6.33348490676962, 57.88056928081153, 100.72677250881165, 1.3685650276613188, -8.05016656920776, 164.98972050900966, 133.35094731889578, 9.678912000992312, 20.8806150314619, 226.56972363187398, 152.05478311094703, 1.288254460681145, 163.29925682077345, 505.29017439937553, 0.0, 0.0, 0.0, 0.0, 0.0, 0.0, 0.0, 0.0, 0.0, 0.0, 0.0, 0.0, 0.0, 1790785258.8441396, 0.0, 2026-09-30 13:20:58.844
7, 23.306337372649125, 7.51196525417685, -0.5420314846575209, 77.0235072497615, 77.28274254606444, -1.8688143851541241, 75.98201943930687, 153.36291801791174, 44.961254378570274, -9.589168692125483, 283.4944244876691, 166.06692489424452, -127.33746888663006, 187.40414692064985, 466.2557300779845, -2.872823648472661, 0.0, 0.0, 0.0, 0.0, 0.0, 0.0, 0.0, 0.0, 0.0, 0.0, 0.0, 0.0, 0.0, 1790785258.844172, 0.0, 2026-09-30 13:20:58.844
8, 23.24341718513739, 1.4381816919841448, 7.094496355803422, 104.33071830422179, 34.36841804140739, -1.5063591610399598, 135.97402084051808, 100.96802468100259, -86.09848242415794, 183.29089829519302, 243.23884713914234, -74.96906832585537, 125.59906581929269, 261.86117284262036, 41.14519575370562, 45.816770255535374, 0.0, 0.0, 0.0, 0.0, 0.0, 0.0, 0.0, 0.0, 0.0, 0.0, 0.0, 0.0, 0.0, 1790785258.8442042, 0.0, 2026-09-30 13:20:58.844
9, 22.73321368540783, -4.269276815412223, 23.52430316075827, 92.21430274773658, 6.581474614682797, 37.3567390792126, 160.90630467449517, -12.81444240804663, 30.312662068120297, 189.05291696659657, -13.664078992680345, 83.86365922046274, 399.05233535237915, 21.49271484625669, -5.707925134358987, 336.5404407690911, 0.0, 0.0, 0.0, 0.0, 0.0, 0.0, 0.0, 0.0, 0.0, 0.0, 0.0, 0.0, 0.0, 1790785258.8442397, 0.0, 2026-09-30 13:20:58.844
10, 21.6878080055993, -4.602322699833657, 40.56035051344375, 80.29891823230696, -12.337115008394996, 111.82927162750084, 118.49729619562572, -18.7107307511732, 179.59450387485964, 135.42064582333933, -32.48862923293069, 248.39920864963386, 121.32115822392385, 16.79826273923439, 306.1292335253971, 53.36850417020612, 0.0, 0.0, 0.0, 0.0, 0.0, 0.0, 0.0, 0.0, 0.0, 0.0, 0.0, 0.0, 0.0, 1790785258.8442724, 0.0, 2026-09-30 13:20:58.844
11, 21.033378278528016, -6.017291401712548, 52.25858970701185, 51.56749425675818, -8.358285916035165, 143.16221546314114, 33.44286903059534, 25.572124382051797, 223.76944109840684, -72.94491763865997, 161.8781031614919, 224.81945845382097, -13.280047799145166, 258.0960275559113, 134.2639951425651, -35.49808558434671, 0.0, 0.0, 0.0, 0.0, 0.0, 0.0, 0.0, 0.0, 0.0, 0.0, 0.0, 0.0, 0.0, 1790785258.8443043, 0.0, 2026-09-30 13:20:58.844
12, 19.495197246880373, -10.083874250735096, 70.46014365499823, 21.70750170603536, 21.823594205697116, 153.7384785614281, -36.662161209158356, 131.75404320488812, 103.4780197375748, 17.365309009422802, 254.52879207668641, -14.147426419241441, 187.3143757192824, 240.81800459196313, -141.25695493194695, 471.9011579860528, 0.0, 0.0, 0.0, 0.0, 0.0, 0.0, 0.0, 0.0, 0.0, 0.0, 0.0, 0.0, 0.0, 1790785258.8443367, 0.0, 2026-09-30 13:20:58.844
13, 18.027237925908416, -6.704114231217506, 68.32234011387314, 2.484839348447423, 66.05614012240946, 89.06244217242248, -19.38374628807145, 229.40126601963232, 0.27117308483339286, 168.14790867888067, 119.30936023465298, 50.83850373794078, 212.7120335065481, -180.16577335255766, 294.12799668987043, 124.41553686415827, 0.0, 0.0, 0.0, 0.0, 0.0, 0.0, 0.0, 0.0, 0.0, 0.0, 0.0, 0.0, 0.0, 1790785258.8443696, 0.0, 2026-09-30 13:20:58.844
14, 16.723415710424497, -2.2237071074316503, 66.96704715449886, -21.5278840557556, 107.10465935637005, 37.16907791889814, 59.896941795618474, 136.8917301199914, -45.0580506192224, 210.93871535336615, 13.914078702610482, 195.1124665619318, 92.99150237609153, 125.8393986837652, 203.30227676290713, -38.785938265884795, 0.0, 0.0, 0.0, 0.0, 0.0, 0.0, 0.0, 0.0, 0.0, 0.0, 0.0, 0.0, 0.0, 1790785258.844402, 0.0, 2026-09-30 13:20:58.844
15, 15.391424283334915, 3.5078499548696307, 70.82282741651102, -19.119294098932606, 127.172508457953, -7.2852478219106445, 139.3138715141999, 27.149904857622523, 103.52165480059932, 136.8154731046057, 49.25489965746989, 196.5289087732994, -2.354967173159281, 282.57660001749156, -130.837774580604, 733.7127131165973, 0.0, 0.0, 0.0, 0.0, 0.0, 0.0, 0.0, 0.0, 0.0, 0.0, 0.0, 0.0, 0.0, 1790785258.8444343, 0.0, 2026-09-30 13:20:58.844
16, 13.631800311896688, 6.9192436018085814, 58.98007890167224, -11.215790322704244, 119.71656923574407, -0.29147746921336903, 154.74123070068015, -54.3210035987816, 192.4530960894595, -44.707865636456546, 186.79683083586178, 59.172435745684496, 163.50051801025788, 170.5356623438399, 365.3311167619653, 411.11839663088426, 0.0, 0.0, 0.0, 0.0, 0.0, 0.0, 0.0, 0.0, 0.0, 0.0, 0.0, 0.0, 0.0, 1790785258.8444657, 0.0, 2026-09-30 13:20:58.844
17, 11.806983728239016, 14.303740720540837, 41.8262658515451, 18.204296364049572, 83.41138672968447, 30.635949848142474, 141.43055671081072, 22.28173643509237, 187.4356436670825, -33.305974538298784, 205.25337523639487, 11.82807816900295, 289.48984858995937, -134.47744174183316, 614.1649686695503, -35.57386821503053, 0.0, 0.0, 0.0, 0.0, 0.0, 0.0, 0.0, 0.0, 0.0, 0.0, 0.0, 0.0, 0.0, 1790785258.8444982, 0.0, 2026-09-30 13:20:58.844
18, 9.999999999999615, 21.54749520581924, 26.35658959015243, 48.33039084529066, 35.41752686409381, 77.84110140629943, 37.19745641068131, 128.54449175622355, 45.92837568755274, 168.0953938330984, 41.05288803679787, 172.35536653190795, 95.02175176882952, 464.7433125297222, 89.98954884869988, 328.29144088728776, 0.0, 0.0, 0.0, 0.0, 0.0, 0.0, 0.0, 0.0, 0.0, 0.0, 0.0, 0.0, 0.0, 1790785258.8445315, 0.0, 2026-09-30 13:20:58.844
19, 8.309128046887784, 28.817961646601542, 10.30631845258496, 76.05006983695282, -2.7970126854574886, 122.47578434014304, -15.482988602770675, 230.32028819790395, -43.39524075396193, 175.778341769762, 22.398654279968454, 630.7945548500445, 47.19921850669388, 208.23816707071956, -38.42252558384189, 240.3186113910398, 0.0, 0.0, 0.0, 0.0, 0.0, 0.0, 0.0, 0.0, 0.0, 0.0, 0.0, 0.0, 0.0, 1790785258.8445644, 0.0, 2026-09-30 13:20:58.844
